# FSM1062.xipf.codf_rot_rot_90_1_0_0.codf discretized with Fixed Number of Orientations method
# Phase (a,b,c,alpha,beta,gamma) : 1; 1; 1; 90; 90; 90
# 
B 3000
  146.80   56.49   10.88   39.88
    0.99   20.94   59.47   85.42
  286.52   47.67   81.54   70.04
  340.11   37.29   58.70   79.50
   12.38   80.67   88.28   61.04
  105.06   68.53   25.43   60.95
   82.06   77.88   53.15   26.24
  229.76   79.00   76.16  133.77
  286.52   37.27   79.00   65.28
  326.38   85.59   19.10   98.94
  289.77   64.83   24.94   65.19
   45.36   53.88   54.07   76.62
  337.47   42.55   33.46   54.45
   35.57   58.49   71.76   55.48
  291.18   24.67   55.37   35.99
   97.55   88.22   24.97   22.61
  342.89   66.55   39.20   58.00
   52.74   45.16    8.43   28.10
   58.61   48.67   40.22   84.57
  287.86   55.93    5.05   42.76
  257.62   53.23   68.13   34.08
  212.42   61.06   34.23   49.81
   19.97   80.82   57.80   44.87
   49.26   79.88   28.47   34.39
  245.62   89.39   48.99   31.20
    6.94   67.30   80.65   30.50
  295.49   68.05   48.43   38.61
  329.69   32.40   55.75   71.12
  190.22   56.86   66.18   34.69
   64.83   28.95    6.92   41.73
  307.67   45.62   45.92   73.50
  269.69   33.58   32.48   44.89
   43.97   64.78   27.95   41.29
  227.16   76.13   86.55  133.86
   69.82   43.20   40.86   71.75
   34.78   26.15   43.38   54.20
  328.96   73.18   33.18   58.00
   64.54   82.28   41.66   25.46
  342.22   89.02   77.12   49.87
  193.05   46.19   71.27   28.58
   84.42   74.12   59.47   51.49
  198.80   84.89   54.35   42.57
  153.73   28.87   71.77   62.66
  304.71   84.94   83.30   90.25
    8.60   87.43   89.90   56.70
   72.08   62.62   44.60   62.75
  128.87   25.76   56.99   26.27
  357.54   54.66   13.82   27.16
  252.72   67.56   60.71   66.19
  225.09   62.92   11.64   35.87
  231.84   43.18    1.35   48.89
  307.09   62.57   14.42   68.15
  324.28   25.30   43.20   38.45
  276.50   51.20   28.03   33.46
   55.95   72.90   17.30   48.01
   34.89   39.43   60.15   36.33
   32.19   38.40   46.36   52.36
  274.25   74.56   74.95   28.93
   61.16   77.04   27.93   31.33
   38.57   73.51   16.37   53.39
  338.74   44.94    9.32   29.61
  126.76   50.07   61.01   51.13
  344.61   79.69   39.77   42.53
  232.36   49.79   50.85   74.52
   76.30   55.77   43.93   84.26
  168.27   31.69   50.54   93.99
  290.63   85.36    3.78   58.39
  351.15   72.04   50.07   61.66
  182.24   37.06   80.42   17.07
  279.73   70.85   59.82   34.38
  345.49   88.01   56.36   36.46
  216.37   89.44   31.80   40.96
  219.06   39.88    9.24   49.27
  306.07   76.50   62.23   29.82
  265.36   61.28   30.08   48.28
   39.07   86.19    4.70  145.96
   80.15   25.18   52.44   47.71
  191.49   50.08   84.37   27.90
  239.08   88.68   82.08  123.64
  281.28   60.70   52.91   54.28
   86.02   11.66   56.53   97.53
   77.81   47.39   81.99   40.63
  266.40   79.12   72.01   42.91
   99.01   67.42    8.66   35.22
  288.02   28.25   42.26   43.74
   15.94   23.54   82.58   25.80
  109.50   85.26   49.20   22.23
    4.94   80.84   65.15   32.22
  356.05   87.83   35.54   59.15
   82.89   86.23    9.13   40.97
  135.93   15.16   28.42   34.07
    6.07   31.32   39.35  110.85
   70.88   68.29   18.96   49.80
   40.85   78.82   45.26   33.90
  320.52   82.47    9.22  159.11
  147.57   81.55    5.62  122.93
  311.65   84.23   11.75  153.81
  164.98   49.09   50.92   59.57
  146.44   52.99   34.92   65.16
  267.14   19.05   65.21   64.21
  311.68   78.14   51.20   21.06
   97.90   84.28   10.79   37.01
  320.54   81.15   42.20   44.37
  183.88   77.21   54.87   61.91
  184.43   49.45   85.11   27.25
   49.26   76.76   85.17  156.61
  324.48   28.14    6.78   40.45
  224.95   64.57   65.45   94.30
  152.23   45.34   34.14   55.06
  135.50   85.28   71.98   97.12
   26.88   30.29   62.33   35.14
  264.46   46.22   45.60   46.24
  182.47   10.42   35.27  133.79
  118.02   89.79    3.26   82.52
  153.73   88.33   78.35   85.55
  125.58   40.50   78.55   35.81
   35.45   24.25   86.18   47.76
  277.72   49.80   61.70   53.84
  279.19   73.99   69.79   29.15
  181.83   65.58   58.97   47.84
   27.66   61.82    3.16   32.84
  175.13   77.92   21.35   28.70
  106.45   43.77   69.10   82.72
  255.16   85.80   32.67   11.77
  233.36   62.31   44.64   68.80
   67.93   50.61    7.06   41.11
  165.21   26.36   75.58   47.53
  313.39    6.87   55.86   46.20
  102.09   46.21   50.64   45.57
  168.48   38.24   83.80   17.72
  349.22   22.77    4.78   24.93
   87.73   63.63   54.62   55.02
  236.16   81.53   22.09   44.26
  261.26   50.35   26.08   65.33
  253.72   44.85   87.86   37.19
  130.32   25.19   44.24   27.00
  208.15   78.36   70.22   60.39
   40.40   62.04   77.29   56.14
  233.01   82.12   10.98   78.54
  351.68   75.72   78.58   18.17
  167.18   87.65   89.12   52.04
   97.20    5.69   82.95   48.22
  108.90   49.75   54.67   73.06
  270.96   75.93   71.38   37.65
  332.45   75.00   38.03   33.63
  104.16   72.56   49.77   31.43
   75.66   16.17   78.81   58.25
  135.02   61.14   24.26  101.00
  216.74   42.24   36.63   58.16
  199.56   81.82   60.24   51.12
   63.81   33.67   42.36   43.95
  265.79   21.31   49.79   56.10
  303.39   58.20   70.36   51.04
  147.27   78.51   71.66   55.79
  122.03   50.06   56.92   74.75
  131.65   48.25   15.28   34.88
  113.74   50.55    1.37   44.18
  276.79   82.27   16.53   41.48
  304.92   65.80   61.48   43.13
  224.47   27.62   77.84   32.72
  136.77   36.68   13.30   21.50
  251.53   40.21   42.76   45.80
   45.20   40.48   55.38   41.42
  318.58   19.25   14.79   61.00
  318.28   77.78   77.33   57.57
  356.13   66.61   50.69   74.78
  163.30   14.65    2.77   39.40
  227.37   52.64   16.62   28.58
  100.63   53.54   47.48   66.05
   86.70   47.30   77.12   53.09
  148.26   55.22   77.71   29.48
  310.55   46.19   77.84   34.98
  340.28   86.10   46.68   35.33
   21.88   84.23    5.55   60.06
  182.84   44.57   33.58   61.15
  210.21   84.92   81.60   84.89
  309.95   89.84   26.19   67.78
  246.85   80.27   35.30   11.54
  133.53    9.86   14.66  103.14
  200.90   62.17    0.97   22.17
  174.06   83.13    5.44   35.65
   39.89   24.49   30.78   52.20
  159.37   75.51   33.47   41.34
  137.95   63.84   69.86   42.45
  295.65   71.84   45.28   33.73
  128.87   57.51   82.82   43.63
  305.76   29.83   76.08   52.64
  246.98   75.11   27.56   33.52
  173.83   51.49   51.95   79.21
  215.51   43.84   70.96   21.94
  237.41   67.95   14.01   37.88
    2.42   88.03   56.43   50.52
  309.46   37.96   57.64   62.97
  148.13   81.50   27.26   51.88
  204.19   74.74   10.69   37.51
  263.48   80.18   20.33   22.20
   60.70   31.29   37.50   48.48
  248.39   20.12   46.67   38.07
  110.29   33.90   26.39   35.92
  157.58   27.92   49.86   67.49
  309.67   65.59   10.29   67.24
  233.56   56.68   40.97   71.09
  135.27   51.15    9.95   44.10
  342.08   32.75   85.76   18.81
  231.66   28.53   85.26   59.13
   34.93   62.47   65.59   73.73
   32.16   10.11   15.61  160.03
  264.70   34.19   15.40   61.63
  241.66   64.77   23.83   40.42
  203.44   37.47   13.16   35.26
  284.59   57.60   38.38   66.20
  213.10   31.70   82.50   24.38
   81.82   76.92   65.92   40.36
  161.13   63.02   39.05   54.99
  267.23   38.99   23.93   51.82
   48.46   49.04   47.50   64.40
    1.67   22.64   32.87   78.51
  298.86   46.79   59.21   81.04
  140.66   86.86   38.44   49.97
  263.75   53.44   83.95   47.47
  339.03   86.02   34.50   32.54
  187.37   30.62   83.64   18.93
  329.88   79.72   32.71   38.61
  179.56   25.96   62.84   54.11
   11.13   48.92   48.94   76.55
  156.02   57.00   86.14   29.41
  139.40   58.02   16.65   55.94
   25.97   63.31   42.48   41.55
   31.59   78.92   77.07   72.82
  127.45   64.87   56.23   47.75
  193.81   13.25   76.34   44.62
  199.41   63.99   56.94   53.53
   64.18   28.14   41.34   41.82
  123.80   56.00   85.82   39.22
   59.56   38.79   54.72   45.07
  132.00   46.37   75.09   34.06
  148.74   43.13   25.34   30.00
  318.41   85.63   32.33   54.38
  170.46   55.50    0.57   17.19
  238.20   30.39   10.16   42.59
  161.45   84.74    3.21   59.16
   78.10   19.72   23.26   32.14
  158.40   79.84   26.76   44.35
  258.50   27.69   72.84   39.80
  270.96   46.78   84.66   85.37
  205.89   85.18   56.64   44.28
    7.15   57.40   73.63   34.48
  337.61   66.31   65.96   39.27
  128.96   27.22   17.22   40.19
  124.05   57.84   12.22   43.90
   47.17   53.39   15.77   24.61
  278.66   71.88   88.58   31.92
  302.20   82.32   54.83   24.89
  337.40   58.95   37.81   67.83
  351.56   87.84   76.08   38.60
   78.51   45.14    4.38   63.57
   16.53   57.14    5.53   22.63
  275.37   45.62   85.47   95.50
  189.87   76.32   44.80   72.40
  108.91   33.52   65.31   51.89
   76.11   37.86   22.04   62.67
  160.68   72.37   87.68   45.97
  319.67   50.00   88.47   48.39
  168.45   35.10   34.58   68.87
   26.38   83.97   85.48   77.99
  194.35   57.12   78.20   29.71
   11.29   75.14   73.96   32.89
  281.68   66.12   36.85   62.73
  135.12   76.92    0.18  137.39
  280.12   60.41   47.89   64.03
  290.47   27.99    8.96   47.87
  276.00   58.70    3.10   45.19
  347.93   59.67    6.91   16.83
   40.14   46.90   19.33   24.45
  132.14   65.24   89.82   75.17
  134.16   68.26   30.53   94.03
  120.58   25.26   51.11   24.55
  298.92   27.94   50.52   38.86
  280.40   64.21   63.63   40.29
  348.21   73.27   74.71   19.70
  210.18   53.86   39.74   57.62
  315.93   79.29   45.50   40.02
  136.10   36.48   31.78   36.65
  170.49   87.78   10.01   41.73
  102.40   39.38   64.88   57.81
  164.32   76.66   68.83   45.12
  126.14   83.03   71.90   66.46
  171.71   23.63    7.50   26.33
  311.21   61.26   40.06   90.17
  344.49   79.85   79.43   28.68
  157.31   72.82   52.89   39.70
  232.40   55.34   83.76   48.90
    7.23   77.06   63.64   33.91
  137.77   20.62   26.60   24.82
  222.69   80.83   79.02  128.79
  164.30   89.04   79.22   61.60
  119.95   40.11   24.32   30.80
  156.75   87.12   55.65   34.06
  128.98   72.46   50.53   27.60
  269.45   47.07   77.23   55.83
  304.26   74.38   86.45   70.14
  221.09   55.24   89.79   51.49
  312.86   18.23   11.96   86.99
  260.47   84.22   54.52   22.66
  188.81   42.61   73.36   24.18
  259.22   32.78   85.56   34.65
  318.36   66.13   73.26   42.80
  129.35   61.43   44.15   65.69
   66.83   47.36   89.97   37.30
  108.48   48.06   77.55   83.01
  241.79   71.09   66.93  104.09
   69.93   22.99   56.47   46.08
  334.14   82.51   64.46   41.72
   35.53   23.14   60.70   23.02
   63.24   77.80   33.25   25.45
   25.94   22.88    3.40   50.92
   93.32   43.22   49.43   44.20
  124.67   46.49   16.94   34.63
  151.26   56.92   11.37   37.00
   69.51   68.68   45.62   42.65
  271.76   35.07   73.27   55.28
  171.54   73.77   85.27   38.04
  130.16   58.36   15.74   53.05
  321.63   44.97   79.69   50.18
   62.60   21.33   73.19   77.98
  324.38   57.12   14.01   44.83
  173.78    1.70   68.09  114.02
  299.83   45.67   73.12   54.38
  109.16   61.29   37.40   73.54
  353.84   79.62   40.67   71.69
  303.41   81.09    7.10   98.47
  269.12   89.09   45.98   29.82
   34.56   25.52   23.46   65.01
   78.76    8.55   79.58   64.61
  268.91   70.33   20.70   34.30
  165.96   89.77   26.62   41.36
   60.69   55.87   84.05   39.60
   67.10   69.85   30.29   38.32
   79.95   12.71   52.60   89.78
   59.92   85.31   59.16   37.59
  141.54   87.62    4.12  196.69
  160.98   81.10   56.93   43.00
  137.81   50.04   74.28   30.94
  295.53   60.66   32.07   73.01
  197.04   88.95   53.60   50.80
  154.91   64.62   34.23   56.96
  293.67   73.17   59.97   34.64
  266.34   53.07    2.15   64.77
  125.16   31.77    7.57   49.89
  248.32   72.96   88.12   52.74
  294.68   63.60   51.72   54.86
  308.27   58.97    3.77   52.72
  164.45   74.05    5.80   57.05
  299.66   54.63   65.52   67.68
   96.58   56.99   80.10   55.21
  286.61   83.81   51.75   17.83
  161.48   63.66   62.46   41.86
   95.99   60.52   11.98   48.46
  353.64   55.58    0.87   10.79
   17.06   39.19   57.82   54.80
  155.10   40.07   47.87   64.35
  123.10   76.95   80.65   63.22
   60.59   83.42   43.48   35.81
  209.87   48.33   40.04   64.88
   57.05   31.29   74.17   40.59
  147.03   78.45   89.21  117.77
  287.67   19.20   25.10   81.65
   57.12   61.92   37.07   51.27
   78.53   60.16   75.84   50.08
  276.62   69.93   76.62   30.20
  240.51   71.83    1.76   61.69
  247.06    4.63   39.44   60.53
  223.50   76.55   62.47   73.50
  192.03   86.43    8.03   40.45
  209.75   66.80   21.67   48.23
   15.95   34.99    9.56   28.78
  358.74   86.79   11.82   55.51
  345.55   78.61   25.62   42.75
   63.22   70.86   58.63   78.62
  351.94   43.26   33.78   59.48
   65.47   36.20   58.98   38.25
  327.06   80.73   46.34   32.32
   15.81   76.46   64.37   36.60
  336.77   24.05   58.21   86.50
  216.35   67.57   73.94   73.75
   22.33   81.73   85.49   62.44
   30.06   40.10   58.92   42.20
  109.20   75.54   38.65   39.40
   33.37   80.17   69.32   75.59
  167.48   49.00   70.45   24.48
  192.12   63.61   79.41   27.37
  107.33   74.46   86.06   53.98
  256.88   45.57   70.21   25.24
  241.16   20.47   33.39   38.16
   67.19   70.10    4.77   53.51
   94.99   86.87   63.18   28.82
  357.62   24.15    3.06   25.21
  143.70   87.12   43.61   44.33
   22.29   77.22   45.31   38.60
  335.59   43.02   15.92   28.64
  120.27   80.81   14.02   76.98
  354.04   67.92   84.81   25.98
  180.51   23.46   27.25   60.72
   96.22   67.45   72.61   38.25
  150.32   77.51   66.12   42.67
  146.88   67.88   13.69   75.45
  166.39   60.44   64.01   39.14
   40.67   14.34   88.77   94.06
  299.64   16.66   25.26   91.86
  234.30   65.70   85.72   74.72
  155.42   24.08    9.93   25.42
  178.55   85.57    8.57   35.98
  121.84   83.53   49.93   25.79
  259.06   42.21   61.35   30.94
  142.27   73.99   69.83   53.68
   36.83   83.80   75.44  103.17
  103.28   28.16    4.77   48.38
    0.29   53.47   17.87   30.11
  272.62   89.01   79.82   43.90
   92.09   66.02   27.43   46.15
  139.64   89.19   71.00  103.93
  137.71   69.16   71.84   55.82
   32.09   46.41   26.43   34.60
  233.83   71.03   44.69   35.90
  359.84   58.50   29.53   46.74
  292.45   24.26    0.43   52.25
  181.76   30.34   65.77   40.72
  263.35   77.15   45.94   34.78
  323.87   77.35   63.40   30.43
  129.34   36.80   80.93   38.58
   54.16   63.44   24.22   50.07
   99.19   54.03   12.08   47.92
   16.52   82.02   80.30   39.54
  268.17   41.43    1.16  102.21
  159.92   54.93   41.36   77.67
  147.17   86.79   69.63   72.07
   29.96   74.53   42.19   32.26
  300.48   87.93    6.79  101.95
  125.80   48.63   79.61   37.97
   89.00   56.25   30.81   63.32
   72.16   15.03   10.33   41.07
  262.53   71.36   66.30   54.88
  314.31   41.72   28.12   30.02
  116.12   50.35   51.81   81.15
  268.38   37.10   37.36   40.96
  285.09   61.62   65.65   58.65
    4.21   70.34   19.53   31.42
  241.25   80.88   41.63   21.96
   70.25   36.34   38.61   60.29
  266.58   39.25   19.21   65.71
   36.02   68.73   60.96   73.49
  200.16   78.46    5.35   43.24
  130.38   36.89   12.50   32.36
   18.57   79.80   64.29   37.10
  151.72   33.49   60.20   58.26
  298.85   50.76   25.69   44.73
  316.83   77.35   13.09  130.52
  132.59   36.45   71.84   35.83
  110.98   82.21    3.46   64.15
  325.90   43.45   81.63   52.39
    9.81   34.06    0.22   17.55
  294.52   47.26    5.10   40.18
   32.11   58.15    8.36   28.92
  283.95   25.03   31.25   52.82
  199.14   58.00   78.92   28.53
  255.20   79.06   35.30   20.43
   85.23   47.96   26.80   63.05
  183.89   69.91   87.04   30.47
  280.66   74.33   42.66   33.06
  351.43   88.15   15.71   47.02
  314.71   60.98   75.78   30.50
  253.89   79.84   78.11   47.14
  197.67   25.40   70.84   24.03
   28.92   54.22   67.47   48.20
  195.62   86.31   36.24   53.08
   36.55   70.06   54.76   56.93
  330.98   26.61   65.83   73.66
   31.73   58.15   88.13   24.37
   91.07   25.07    2.78   38.19
  198.67   45.62   84.48   25.80
  121.35   38.26   13.76   35.18
  267.44   62.05   82.72   37.14
  140.72    9.89   16.09   65.66
  183.29   38.50   19.40   31.73
  160.01   44.73   55.16   54.35
   97.07   73.97    3.14   48.17
  336.50   36.92   33.40   48.44
    2.85   65.43   15.25   33.85
  331.48   39.66   40.81   53.81
  207.79   77.29   24.77   36.79
  323.14   65.20   47.75   44.98
  357.39   65.34   27.71   44.68
  341.35   33.09   22.31   30.43
   21.59   50.63    0.33   27.49
   26.67   83.58   35.56   40.84
  227.39   74.40    7.56   84.67
  326.44   66.84   71.90   46.40
   32.55   60.61   77.75   46.42
  171.99   88.58   59.56   34.20
   82.24   61.25   70.20   58.30
  158.77   26.11   84.83   42.22
   17.26   70.05   71.07   50.43
  313.09   56.32   52.48   63.62
  312.74   63.70   71.42   46.08
  155.75   43.61   27.81   39.29
  182.94   75.56   86.35   39.21
  133.53   65.98   54.52   43.73
   27.93   77.98   64.53   50.79
  143.25   65.14    9.58   69.55
  278.22   31.10   22.35   39.58
  214.52   47.43   31.31   45.63
  311.31   71.51    7.81  103.68
  359.95   66.42   64.23   37.51
  135.63   42.55   81.44   40.03
  312.92   73.57   50.84   33.69
  356.54   49.71   51.76   84.62
  211.26   66.62   29.16   44.77
  213.17   52.81   10.31   28.26
   77.51   63.94   84.66   46.02
   16.21   79.69   26.47   43.21
  101.52   82.00   76.28   36.55
   54.00    7.52   86.85  167.17
  179.18   82.40   50.18   88.51
   18.96   18.43   74.46   35.27
  186.23   82.89   61.54   45.09
  322.06   34.54    9.50   35.83
  217.42   85.25   49.61   45.26
  177.99   88.46   26.01   40.48
   88.58   26.96    9.90   36.13
   41.61   63.07   38.09   43.96
  298.66   41.28   19.50   33.71
   92.41   85.94   86.57   50.96
  211.30   58.21   54.66   69.35
  165.49   74.50   49.60   40.89
  334.70   62.76   83.90   35.25
  144.70   84.38   33.19   45.11
   87.37   71.44   68.62   37.46
   30.33   51.36   85.04   25.15
  257.17   35.86   72.58   32.16
    2.10   70.94   63.40   43.65
    4.22   37.33   15.82   27.82
  323.27   81.40   71.75   65.75
   92.09   79.71   10.14   28.84
  116.48   87.36   87.86   88.57
  134.82   28.38   88.35   64.74
    5.98   56.04   30.93   49.46
  134.68   67.81   25.48  109.65
  122.39   72.44   86.72   67.87
  268.63   89.15   78.00   47.91
   19.28   49.45   13.32   22.02
   38.66   41.00   85.91   36.39
   35.72   57.01   78.91   39.20
   89.33   42.23   78.87   59.79
  168.24   44.75   24.32   38.89
  264.27   71.17   12.69   23.88
  358.25   23.91   16.05   33.57
   99.01   33.40   43.91   37.27
  149.28   83.00   50.82   24.33
  221.89   54.32   67.22   49.28
  103.20   78.90   43.14   33.41
  187.93   78.88   38.67   71.88
  258.46   40.71   55.63   42.56
  297.88   87.34   80.49   64.02
  309.63   58.30   62.93   48.18
  128.68   89.96   19.59   72.08
  202.66   42.77   44.92   70.30
   60.31   85.07   68.77   66.63
  192.28   54.09   32.81   59.13
  152.35   54.75   60.31   42.32
    7.17   73.68   53.42   58.51
  170.98   66.40   28.49   43.19
  134.97   75.03   66.59   43.78
  256.22   89.01    7.30   55.26
   81.81   70.67   43.26   42.22
  279.44   59.45   87.23   41.32
  325.53   16.69   56.06   50.90
   36.75   30.73   62.84   28.42
  345.49   85.45   10.13   55.50
  277.11   80.09   76.88   22.38
  204.31   41.42   66.62   34.30
  289.67   82.97   85.94   43.38
  121.16   27.79    1.48   48.04
   16.03   78.85    2.13   53.59
  236.58   88.52   73.72  100.06
  196.75   74.71   70.37   51.23
  299.77   68.32   17.96   81.19
  210.19   44.82   17.44   40.13
  130.74   66.27   67.74   42.37
  138.00   58.04   41.70   74.17
    6.10   65.71   25.50   41.93
  219.83   73.59   82.76   96.35
  358.72   86.81   70.17   36.32
  185.79   79.44   43.62   86.64
  213.84   50.94   80.04   27.87
  223.88   68.92   81.88   83.28
  288.53   70.50   79.53   31.74
   71.89   64.03   61.07   71.84
   94.50   80.21   83.10   44.62
  316.01   65.87   34.63   92.54
   46.70   57.51   77.80   51.96
  193.30   86.24   74.50   51.56
  179.20   32.58   38.71   98.10
  147.57   69.44   63.95   51.96
   10.89   75.91   59.31   47.41
  158.56   80.20   34.51   35.77
  202.71   80.16   35.25   42.57
  132.42   62.69    8.10   72.71
  257.49   24.07   44.09   43.54
  232.17   51.18    2.15   46.42
  334.50   61.75   20.83   59.48
   45.95   67.85   77.52   91.37
  170.29   48.07   63.58   36.28
   38.44   77.66   17.96   61.29
  342.56   34.28   13.58   26.06
  179.09   75.77   37.26   65.37
  197.34   54.63   24.84   41.90
  215.36   80.08   49.68   36.33
  265.22   53.08   13.73   67.22
  189.50   71.76   13.39   23.77
  183.28   31.64   14.55   32.45
  272.00   23.86   29.40   45.34
  204.52   21.14   86.65   37.11
   60.85   16.76   39.47   21.05
  110.42   11.64   75.64   44.07
  216.42   70.32    7.74   61.46
  296.83   40.83   29.45   40.48
   52.90   87.38    4.91  170.11
  232.05   80.95   31.33   29.94
  186.98   69.04   42.08   78.91
  217.62   18.74   28.67   70.24
  291.52   46.35   63.37   78.32
   51.80   83.48   41.53   38.44
  322.57   68.58   21.68   91.53
  188.10   70.45   59.13   60.22
   23.92   18.91   41.81   67.68
  217.88    6.19   39.17   57.19
  138.00   57.15    1.44   49.02
   60.99   66.76   82.76   72.54
   73.08   49.72   53.93   59.97
  165.33   27.31   25.80   32.39
    9.83   22.12   20.91   61.49
  359.46   75.48   66.93   29.08
   45.30   62.99   71.62   93.00
  285.33   28.92   61.13   50.93
   42.39   40.19   87.06   48.03
  238.98   35.90   56.88   42.80
  162.48   45.18   40.83   66.22
    5.52   54.42   39.02   87.78
  320.58   61.11   49.11   48.62
  160.09   42.58   30.42   50.33
  126.58    5.02   89.92  136.65
   78.59   73.16   22.52   30.86
  124.17   41.85   58.54   60.86
   15.23   45.87   47.50   72.12
  150.14   88.24   44.14   31.69
  180.71   35.43   24.35   45.51
  139.15   78.93   26.45   64.51
  297.08   36.24   49.74   52.68
   20.80   59.79   72.84   55.13
  137.17   67.88   63.94   44.25
  276.49   40.76   10.65   69.82
   82.84   82.35   20.44   27.78
  182.12   87.44   19.17   38.52
  151.56   74.43   80.35   64.37
   10.12   45.33   78.60   28.45
  139.26   82.21   38.36   36.47
  213.22   36.34    6.58   40.22
  148.45   63.73   55.30   37.04
   13.00   87.82   56.98   41.10
   13.63   30.36   36.18  107.19
  221.92   29.11   47.74   34.40
  257.14   81.11   52.20   26.67
  179.36   77.15   48.54   77.53
   90.93   67.95    9.07   31.83
  250.52   22.61    0.77   55.80
   12.21   83.72   45.11   76.69
  291.08   77.69   15.12   57.47
  142.98   83.81   74.93   93.74
  247.90   87.88   36.51   18.34
   50.64   67.86   56.91   87.81
  307.08   86.05   77.13   84.20
  255.01   28.90   27.57   41.07
  348.97   81.25   77.29   30.06
  328.83   83.05   54.82   33.78
  237.95   85.70   62.87   58.44
  263.84   87.95   11.74   44.23
  138.85   83.16    3.14  192.53
  270.38   37.44   64.77   43.47
  137.75   25.19   11.45   47.82
  233.67   76.27    1.72  101.99
  181.39   67.22   40.27   82.10
  257.85   67.71   46.18   50.41
  173.03   59.30   10.71   24.43
  117.08   66.18   46.36   51.16
  357.36   89.65   16.40   46.42
  327.06   87.20   87.09  138.83
  206.47   72.11   50.04   48.21
   42.21   32.06   55.12   34.26
  342.91   44.92   49.05   76.36
    4.10   58.17   44.90   88.69
   79.53   57.38   29.05   73.22
  123.35   23.41   36.97   30.21
   15.22   88.01   71.30   40.99
  231.83   59.33   18.75   33.58
  189.01   78.53   20.09   27.45
  141.96   44.10    8.40   30.04
  315.31   65.85   30.36  112.11
  287.28   73.88    7.94   52.85
  356.17    5.29   24.62   57.07
    5.85   89.47   34.40   57.11
  356.83   78.69   78.50   21.06
    1.28   57.32   14.32   28.02
  279.55   85.95   23.32   37.07
  190.84   82.06   48.12   74.24
  338.96   39.94   41.66   60.86
  156.52   67.62    7.02   50.39
  144.50   41.97   54.15   49.57
  318.37   46.45   72.68   34.30
   87.08   79.82    1.54   58.49
  236.63   72.39   74.56  115.09
  286.27   27.65   36.10   48.12
  245.62   68.55   41.31   40.88
  195.26   42.01    0.90   26.40
  185.81   38.07    3.91   19.48
   21.42   68.66   36.36   44.76
  211.55   40.57   19.51   32.42
   57.82   68.49   47.96   55.37
  121.50   63.97   49.23   58.56
  120.99   64.19    3.84   65.42
  166.29   27.78   34.14   54.87
   67.97   45.54   21.38   64.17
  235.10   88.93   30.24   37.28
  173.39   31.39   35.02   71.34
  302.04   40.63   32.23   35.43
  357.75   73.89   86.23   34.39
  117.05   55.30   88.32   38.16
  258.57   67.64   67.81   57.84
   65.35   79.87   15.11   51.24
   16.16   61.44   18.85   36.88
  105.60   54.03   51.98   75.43
  323.67   46.25   24.57   25.45
  131.67   88.57    1.54  194.45
  317.63   69.54   48.12   43.66
   52.84   74.74   47.55   42.68
   44.04   28.22   71.24   21.64
  177.17   84.86   20.56   36.01
  248.44   89.39   82.56   71.46
  141.61   56.78   74.65   31.66
  273.45   64.54   53.73   55.29
   74.37   83.43    0.26   63.04
  101.03   48.89   55.34   53.35
  208.78   86.99   73.44   71.71
  140.04   88.41   66.29   88.34
  301.57   70.81   86.54   59.80
  350.53   14.51   83.36   51.91
  205.07   84.94   17.85   51.84
  206.64   29.27   67.05   25.62
  321.88    8.81   40.93   32.73
  261.49   41.85   49.05   39.40
  102.71   81.40   27.88   28.07
   58.15   25.07    9.86   48.39
   99.55   52.92   28.44   55.44
   54.36   78.87   30.92   29.79
  270.41   75.96   21.61   32.58
   59.16   39.39   28.12   58.73
  180.15   15.13   53.54  122.66
  117.31   59.49   75.90   40.74
  256.21   45.12   21.08   83.64
  268.35   58.19   13.66   50.30
  102.50   67.85   40.72   54.63
  181.93   54.17   31.08   47.94
  220.79   86.16   66.84   89.70
   30.35   60.39   17.49   31.20
  126.23   58.28   26.84   90.35
  258.06   58.38   36.12   58.23
   44.69   79.30   13.70   75.49
  262.85   79.57   30.88   27.55
   75.70   27.69   85.59   42.19
  306.67   42.98   13.48   36.36
  351.82   69.97   59.66   51.91
  304.35   37.24   44.86   39.30
  100.68   44.04   42.87   52.96
  256.06   89.84   66.04   33.80
  318.75   40.35   45.10   48.02
   27.85   65.12   13.96   29.89
   51.36   85.22   77.46  138.75
  351.36   73.61   40.21   54.47
    7.42   88.11   67.72   36.29
  274.19   76.56    9.03   34.58
  204.11    8.19   20.52  191.12
   62.61   72.84   83.27   88.50
  260.83   17.51   80.68   51.12
  161.72   30.73   33.48   60.03
   48.95   57.08   40.00   61.45
  165.56   62.65   31.11   52.62
    4.01   76.80   25.88   43.71
  144.91   51.36    0.50   48.20
  279.97   38.59   63.06   59.24
  339.84   35.32   72.11   44.11
  155.70   60.88   38.19   61.78
  180.90   71.83    1.16   29.30
  128.00   45.43   54.39   61.10
  234.65   75.31   68.91  111.12
  118.41   66.88   80.87   46.85
  126.81   72.75   16.51  109.87
  328.36    2.41   88.64  158.64
  341.76   24.31   44.18   71.57
  307.47   77.36   19.59   98.55
   83.31   45.45   31.58   61.72
  199.13   19.11    7.57   56.69
   30.61   78.68    7.44   67.28
   98.30   74.59   14.53   38.77
   75.29    3.79   23.77   50.45
  295.05   48.99   58.74   85.87
  261.62   75.25   83.31   42.25
  169.10   41.10   77.00   24.48
  242.69   62.74   18.50   43.82
   44.10   40.97   30.78   48.20
   75.70   42.50   75.89   32.96
   46.05   69.13   26.06   46.96
  223.18   56.93    5.95   48.15
    2.47   50.54   79.70   20.17
  261.93   44.83    7.52   96.19
  224.92   85.07    9.49  124.02
  310.68   67.16   15.62   95.79
  198.32   33.36   89.06   16.14
    0.12   16.44   12.53   39.53
  320.93   79.69   26.37   68.04
  222.30   88.67    6.87  160.95
   90.61   76.58   55.73   33.09
   29.94   83.93    6.01   84.45
  174.93   66.30   75.75   22.10
   53.74   85.94   72.57  104.63
    1.49   84.14   14.27   48.24
   73.93   66.40   72.51   53.23
   92.18   49.69   36.99   60.50
   40.15   75.76   30.75   32.77
   23.69   50.06   33.35   45.22
  264.75   73.69   25.59   37.12
  163.79   53.92   81.46   21.14
  353.59   85.69   79.49   36.76
  252.26   60.47   72.16   53.79
  199.59   48.53   88.45   25.98
  164.87   13.96   28.88   49.69
  102.65   61.98   88.47   44.79
  131.88   37.57   25.29   27.57
  314.32   48.45   44.02   74.87
  259.78   27.86   45.41   45.62
   70.69   88.64   34.44   19.71
  128.14   88.06   68.76   74.45
  177.08   37.28   68.48   30.63
  237.50   75.89   62.09   81.27
  184.72   18.20   29.74   95.99
  324.02   13.34   17.91   50.23
  129.31   78.17   38.50   29.99
  332.55   58.07   67.99   44.74
   10.75   81.54   27.22   47.11
   34.22   21.12   41.99   46.40
  129.54   75.73   64.59   42.01
   83.49   55.56    8.58   66.27
  161.29   66.69   53.09   51.12
  225.47   70.78   42.82   44.41
  118.31   59.58   83.37   41.25
  210.72   47.05   54.59   62.94
  125.29    7.05   44.08   39.44
  223.39   82.68   89.89  166.06
  280.40   54.10   66.44   66.16
  141.71   59.95   11.89   54.08
  268.09   40.15    6.22  101.33
  332.08   74.19    2.28   61.20
  201.46   33.56   44.03   70.84
  292.50   87.59   31.32   19.56
  110.00   86.03   36.38   25.16
  112.75   76.37   69.06   28.48
  223.20   18.54   78.34   63.47
   12.28   64.87   27.02   44.76
  150.86   61.85   34.81   58.91
  351.25   80.37   17.02   42.25
   31.80   76.17   58.99   45.65
  162.11   18.78   33.52   45.14
  199.69   29.82   38.10   92.84
  220.45   40.65   45.59   52.74
   22.27   51.13   82.74   23.62
   75.55    6.28    6.40   45.37
  341.37   72.71   43.30   33.04
  128.84   69.51   38.97   56.67
  260.99   88.71   62.55   16.20
   66.30   49.46   74.21   36.09
  210.74   23.62   87.32   48.28
   90.55   44.79   35.92   50.40
  201.40   69.94    4.89   35.27
   57.38   72.15   78.28  102.14
  122.61   79.52   85.39   90.91
   93.28   27.40   12.78   42.59
  104.91   16.03   76.38   42.53
   71.99   81.41   18.58   36.77
  118.78   37.01   67.85   52.31
  225.93   11.20    5.41  160.06
   40.44   80.72   77.11  116.52
   66.46   63.40   60.14   82.22
  312.39   71.81    2.42   92.33
  198.02   72.79   54.01   56.34
  351.60   77.77   24.25   39.21
  156.32   34.33   87.44   18.13
    1.99   75.53   59.38   50.26
   86.77   31.70    9.06   45.47
   33.21   48.05   32.46   44.21
  204.80   58.72   35.42   52.69
   53.11   11.84   43.11   22.86
  136.44   20.38   79.16   75.26
   17.20   71.18   22.44   45.91
  119.29   81.86   70.79   43.86
  262.64   63.88   65.19   57.38
  216.62   44.56    2.70   44.45
  336.98   75.55   76.36   37.92
   96.00   31.07   50.39   41.55
  254.94   73.58   12.16   27.75
   45.65   60.38   26.94   41.48
  281.76   86.20   50.10   20.74
  243.13   70.03    7.78   55.79
  124.29   25.66   66.20   33.69
   41.15   85.40   10.11  117.93
  241.99   68.55   12.42   37.69
  349.07   85.26   23.17   44.84
  155.28   80.48   67.60   41.50
  210.26   78.91   30.24   33.23
   69.90   61.84   55.82   71.35
  348.36   88.35   39.59   61.24
  169.18   77.64   12.94   35.20
  181.55   60.47   82.48   17.73
   12.65   24.68    4.79   32.65
  265.18   59.27   72.79   48.76
  184.70   42.31   62.53   47.20
  149.51   47.96    2.28   36.20
  276.14   55.68   35.46   49.28
   57.14   71.17   61.16   94.49
  323.72   73.98   51.80   33.89
  337.95   49.42   55.75   56.81
  226.14   52.60   44.62   75.85
  214.30   31.69   54.50   42.88
  349.56   30.85   45.82   92.12
  342.38   58.15   54.16   50.25
  153.60   38.20   12.00    9.07
   60.88   62.46   38.60   59.26
  128.60   65.44   42.87   52.67
   99.09   55.89   67.71   59.03
   67.75   86.23   43.81   26.02
  336.93   25.51   53.92   82.57
  311.69   79.28   39.67   36.64
  250.86   75.70   56.48   44.94
   34.72   75.32   23.36   45.19
   40.73   25.58   70.44   18.26
  292.39   37.92   80.76   58.40
  284.81   88.15   74.67   39.46
   78.88   43.48   24.88   72.73
  179.01   75.13   62.56   56.86
   28.06   46.73   46.85   67.20
  167.43   79.91   17.30   43.44
  159.37   50.91   32.95   59.86
   50.35   56.91    8.44   40.83
  169.33   72.58   81.16   33.49
  293.75   55.59   65.38   73.59
  148.62   59.09   48.45   50.68
  351.12   65.96   17.61   39.92
   82.41   70.76    6.72   40.13
  278.63   58.09   69.54   60.90
  352.22   88.26   57.39   42.37
  118.54   50.75    6.14   41.60
  127.74   61.84   88.73   48.11
  264.20   22.45    7.12   41.55
  131.05   59.73    5.22   63.11
  198.27   70.40   66.62   55.32
   83.55   19.33   82.14   42.41
  238.36   45.72   68.16   25.59
   90.45   28.48   80.15   38.18
  177.65   56.42   70.65   27.84
  180.89   52.83   74.62   25.94
  317.57   62.70    5.30   68.70
    3.20   80.59    4.34   39.93
  228.30   70.89   28.51   48.14
    7.41   52.36   80.76   21.81
   67.78   64.53   44.75   59.71
  292.65   51.95   88.16   38.20
  235.68   74.58    5.54   74.23
  279.65   12.42   68.26   48.31
  180.16   29.15   40.52  107.67
  228.06   51.98   62.47   46.20
  206.44   45.57   12.09   34.74
  290.56   70.84   46.01   37.92
   42.91   71.81   34.39   38.85
   93.91   59.41   38.70   75.44
   89.33   60.14   73.25   53.87
  142.53   77.99   82.65  106.76
  299.78   60.61    4.00   42.33
   44.72   88.45   17.13  101.15
  128.23   56.81   75.89   34.66
  275.34   84.22   79.19   34.37
  158.79   51.15    2.16   25.61
  154.52   67.64   20.09   67.88
  314.31   48.64   13.43   36.89
  145.55   42.19   43.50   51.89
  322.89   46.21   50.32   66.84
  261.39   79.83   54.22   25.47
  316.71   73.49    7.79  124.42
  296.27   73.22   17.58   70.47
  150.35   30.62    3.73   24.83
  237.31   54.81   14.16   25.31
  255.99   50.35   89.36   38.59
   65.33   59.94   82.23   42.78
  237.47   85.95   70.05   90.78
    8.62   82.43   84.55   48.56
   49.65   17.49   14.90   70.48
  163.02   32.23   36.84   65.14
  200.76   70.22   26.24   50.25
   71.97   81.90   64.55   33.38
  196.49   55.41   88.72   17.79
  214.47   83.50   76.17   94.81
  142.21   59.16   60.88   33.57
  305.30   51.56   44.00   91.91
  196.04   67.40   59.47   55.19
   11.94   56.55   59.45   53.75
  313.15   77.47   17.35  123.80
  316.55   75.02   80.96   70.75
  347.99   34.67   39.41   67.53
  312.64   71.93   83.08   71.82
   58.74   11.90   56.55   42.56
   38.15   88.75   15.95   93.60
  170.36   22.11   30.45   48.95
  339.36   82.59   25.24   52.59
  101.28   71.14   46.23   41.29
  254.20   63.92   44.19   61.63
  175.43   69.66    1.38   27.11
  106.50   32.73   72.44   50.74
  232.08   69.74   39.41   43.89
  114.43   63.29   10.87   50.11
   90.96   29.21   86.09   37.32
  163.64   38.79   73.11   38.81
  149.66   69.96   35.69   43.07
  319.80   73.51   84.73   89.54
  153.06   58.21   49.00   55.04
   86.74   37.67    8.74   74.26
   33.89   26.14    6.52   61.34
  128.78   62.19   36.02   89.24
  188.33   41.34   27.14   51.02
  270.37   79.85   42.07   29.97
  342.93   60.51   58.00   43.09
  244.41   26.84   88.63   53.00
  275.32   41.45   26.22   32.26
  229.10   50.69   31.90   48.29
   15.16   84.13   66.63   43.99
  233.37   12.42   76.20  124.63
  129.86   77.27   54.23   12.24
   49.82   24.46   77.69   54.78
  347.29   49.25   84.48   12.78
  180.89   40.01   34.98   80.05
  224.85   48.32   84.46   43.65
   48.64   56.09   71.76   55.98
  135.31   87.12   80.14  152.16
   88.16   83.24   11.70   36.92
  245.00   47.11   38.31   77.56
  279.60   35.46   17.72   37.09
  278.24   82.27   62.99   23.36
  343.47   62.31   68.83   43.36
  131.51   15.07   89.02  100.61
   69.90   58.98   62.23   71.44
  280.85   76.94   87.33   43.20
   63.25    8.87   11.96   45.15
  276.92   83.27   46.30   23.15
  348.85   75.04   12.14   38.03
  239.88   34.86   33.43   57.55
  102.38   76.78   25.19   37.47
   73.65   47.80   69.19   31.20
  307.76    6.84    8.89  192.00
  338.46   36.43   83.46   33.90
  248.46   62.52   82.46   42.05
  120.08   66.23   36.50   70.52
  241.20   52.32   81.96   33.05
   81.11   81.75   84.82   49.15
  358.20   33.29   34.41   77.86
   93.55   43.27   26.75   39.56
  210.06   43.77   37.54   61.47
  215.90   60.45    0.78   36.65
  332.76   26.60    3.63   36.97
  345.78   73.26   43.47   43.27
  136.71   86.77    4.54  200.00
  210.88   31.02   33.85   68.49
  239.56   47.17   46.06   71.37
   93.51   22.14   33.66   42.99
  139.73   79.36   58.02   33.51
  246.63   15.99   32.86   40.81
  160.13   79.64   64.34   38.88
  355.94   59.13   72.18   30.85
   35.86   50.09   67.45   35.32
   30.24    8.99    2.30   94.34
  138.23   24.44   73.65   63.47
  329.92   65.76   49.33   42.85
  253.59   28.27    6.32   39.46
   95.98   17.09   33.29   54.84
  344.51   75.63   78.23   26.37
  264.66   69.35   46.32   44.00
  123.03   70.82   45.58   40.57
  281.76   34.40   71.25   60.11
   59.72   81.77   81.17  107.38
  127.71   83.96   10.95  108.22
  321.83   25.98    3.04   63.30
  267.15   77.23   87.04   45.36
   54.53   74.70   66.69  100.69
  131.52   79.89   31.23   49.01
  135.24   86.26   46.53   47.90
  145.45   60.45   85.25   42.14
  140.77   76.71   51.67   23.96
   10.57   53.84   26.53   37.94
  279.64   48.54   30.01   36.92
   15.86   46.73   21.28   27.89
  288.95   48.78    3.63   42.63
  182.57   56.27   82.70   21.08
  219.77   69.02   52.11   64.91
  248.89   57.15   80.48   34.47
  171.04   55.17   28.24   50.77
  357.35   31.16   73.32   33.64
   61.79   58.35   87.02   34.47
  217.62   86.01    1.93  145.54
  116.71   78.27   63.56   32.36
   18.26   82.54    9.17   49.40
  317.00   56.01   76.62   25.34
  277.94   81.64   50.61   28.04
   38.48   74.53   45.90   34.96
  341.02   80.80   38.21   38.47
  317.55   61.86   82.87   51.19
    3.65   18.69   63.63   71.94
  342.02   57.15   26.19   54.83
  208.44   71.76   54.73   59.21
  141.96   66.51   30.93   72.04
  354.56   63.51   32.14   50.43
  174.60   49.76   32.30   57.09
  282.79   47.74    2.76   65.63
   56.46   85.05    1.27  153.87
  216.24   45.57   79.18   29.35
  350.19   89.99   50.12   54.62
  328.08   69.55   56.43   43.42
  139.33   87.38   77.62  135.57
  119.64   51.70   28.80   54.64
  204.39   39.68   23.32   46.42
  321.69   87.22   71.15   85.57
  275.88   48.69   14.78   53.22
   46.95   11.39   19.90   67.58
   17.37   64.37    3.62   29.55
   75.67   19.93   48.91   45.55
   63.87   67.88   24.58   44.66
   43.70   27.85   57.08   28.27
    3.57   57.23   70.13   38.17
   21.35   74.67   68.13   46.86
  298.44   40.53   11.06   38.97
  352.48   16.66   69.94   85.52
  225.61   63.68   76.29   69.63
  181.38   58.64   76.18   30.62
  253.27   37.03    0.97   41.31
  282.40   57.62   82.28   54.73
  214.10   68.63   58.81   71.45
  359.48   57.11   67.26   41.18
  273.98   52.34    9.01   70.34
    4.64   64.92   31.85   54.16
  186.38   57.62   57.81   50.21
  320.30   31.64   64.15   56.97
   54.90   64.19   57.98  106.45
  205.43   57.89   29.51   45.86
  113.75   66.64    3.91   58.29
  124.31   57.39   32.12   90.31
   62.87   23.93    1.56   58.66
  274.66   68.41   32.17   54.94
    0.86   81.98   44.84   96.36
  231.93   75.15   81.17  128.21
  128.33   25.19    4.73   75.63
  126.60   47.63   30.77   45.41
   27.90   71.99   47.63   31.43
  174.07   61.11   55.70   58.76
   60.90   60.24   75.25   57.92
  340.59   33.21   52.07   83.25
  265.44   85.41   49.20   24.64
   92.61   58.31   89.18   45.93
  251.50   46.76   36.05   79.86
  204.36   48.53   46.84   76.94
  233.88   77.43   19.77   40.37
  233.07   82.47   71.12  120.20
   44.56   67.55   87.35   97.61
  181.73   48.84   70.05   29.69
  208.29   13.53   36.82   80.90
  234.51   60.49    1.94   43.64
   15.16   43.10   72.87   31.47
   53.20   44.29   15.31   26.91
  343.01   69.63   51.20   46.48
  228.73   72.34   63.41  109.08
  315.05   52.52   54.76   64.69
  217.97   35.17   30.57   58.60
  316.51   35.93   36.26   34.25
  144.64   27.84   28.23   23.00
  192.44   70.41   78.62   34.65
  249.07   37.12   24.15   52.86
  149.90   15.35   53.76   56.37
  163.43   80.75   45.40   41.81
  290.03   86.58   41.74   27.52
  336.36   86.65    5.09   83.74
   85.72   67.98   24.28   41.20
   19.47   41.27   43.11   65.37
  173.91   36.59   43.39   90.20
  264.42   43.27   50.80   38.42
  100.57   60.45   18.94   64.79
  138.88   74.66   58.90   45.42
  313.67   50.54   73.19   29.11
  178.31   84.48   77.63   43.90
   45.01   16.32   23.81   62.59
   27.62   46.32   64.41   34.46
   46.58   25.84   29.28   47.08
  156.76   29.04    2.12   23.34
  242.36   82.14   63.45   54.21
   55.37   75.58   38.89   29.98
  262.13   67.60   32.46   49.36
  355.25   36.83   65.34   49.50
  219.73   65.52   43.70   54.33
  166.96   67.22   52.90   54.30
  158.33   74.70   26.04   59.81
  178.22   65.67    7.21   22.57
   15.68   74.31   13.53   26.72
  304.31   81.41   66.38   38.82
   95.53   40.71   75.51   72.67
  232.22   40.64    9.67   39.03
  155.79   27.66   24.95   27.91
  358.94   82.31   68.74   32.15
  189.04   21.32   76.38   33.02
  280.64   81.53    6.03   39.79
  228.75   57.17   47.52   85.92
   93.70   63.92   44.86   70.48
   80.62   65.01   31.44   43.53
  142.62   63.70   21.93   93.37
  258.65   59.22   27.32   58.67
  342.60   20.90   34.99   48.22
  204.19   17.17   48.05   52.84
  332.96   87.54   45.54   35.57
  214.63   20.57   17.62  112.90
  110.63   42.01   28.44   41.99
  230.42   40.03   22.45   36.80
  216.99   55.02   26.13   40.97
  106.00   73.72   68.66   29.44
  215.80   84.44   21.99   58.86
  324.47   42.23   74.20   38.04
  340.82   58.32   13.20   35.17
  224.82   58.23   43.27   68.67
   13.57   71.68   83.27   46.84
  189.76   87.41   36.71   65.61
  322.70   73.43   76.70   49.50
   95.55   84.96   16.54   37.94
  206.51   81.27   20.90   43.49
  299.80   72.71   74.69   42.43
  198.18   55.11   19.69   34.30
   71.68   77.48   33.64   23.59
  348.33   43.79   72.68   26.89
   44.02   61.31   82.09   62.89
   46.90   39.88   75.55   26.27
  248.83   66.43   49.62   59.98
  194.33   47.28   32.70   68.19
  297.35   69.08    3.97   63.22
  331.80   65.76   69.10   43.45
   67.49   68.78   87.20   61.32
  122.87   72.50   53.07   28.03
   39.38   67.83   47.84   44.57
  310.85   50.95   41.54   80.49
   45.08   11.61   36.10   29.87
   62.80   64.06   65.00   95.86
  312.62   59.62   68.11   48.05
  310.70   31.80   61.49   59.92
  120.16   84.62   34.55   37.22
  246.56   49.56   17.55   52.55
  123.01   59.97   71.33   43.58
  283.30   87.03    5.07   60.08
   73.31   41.24   41.99   57.45
  264.78   48.84   59.98   41.10
  304.05   75.07   47.80   28.60
  275.13   67.41   47.08   51.81
  212.10   85.84   10.13   73.35
  301.36   86.94   48.10   30.82
  254.76   13.89   41.35   53.22
  104.46   56.60   58.49   69.14
   12.92   71.54   66.98   38.12
  280.53   64.48   33.22   59.99
  222.57   84.53   73.48  126.48
  287.73   75.58   53.42   27.92
  231.44   72.89   67.05  121.40
  135.15   41.80   58.34   45.55
    3.21   65.39   21.84   40.01
   55.43   54.73   47.92   90.97
  312.44   58.47   19.72   76.89
  307.38   24.67   10.43   72.26
  242.08   34.39   86.43   31.89
  210.11   79.26   14.61   42.38
   89.86   35.23   20.59   49.53
  182.70   87.59   14.47   47.54
  300.21   22.44   19.90   66.56
  114.83   89.49   42.40   30.03
  173.53   62.38   66.53   33.46
   55.39   29.18   23.94   42.15
  225.96   60.71   87.04   59.58
  236.80   37.36   10.98   28.17
  137.21   80.47   76.72   84.23
  173.25   28.60    4.14   17.55
  351.10   36.78    4.36   21.67
  251.95   41.13   82.40   29.39
  206.59   84.72   13.18   52.98
  356.28   35.60    7.36   17.26
  132.37   80.85    3.55  166.33
  112.80   79.35   77.92   41.51
   85.66   61.66   87.53   38.90
  357.98   86.44   87.85   51.64
  272.72   86.03   41.01   20.97
  168.20   61.90   56.88   48.76
  205.32   60.13   11.98   25.44
   98.21   67.02   87.45   44.90
  207.01   36.10   60.40   46.97
  217.42   64.29    9.01   42.42
  151.79   13.45    3.74   59.88
   54.77   51.92   55.75   77.45
  322.02   49.65    5.92   42.44
   10.69   25.85   32.62   98.97
  150.67   68.46    1.94   69.34
  164.25   51.29    0.61   22.75
  177.71   81.05   39.14   71.16
  169.83   78.82    7.31   38.43
  264.81   53.33   72.38   43.10
  144.02   54.52   60.57   43.61
   91.50   79.26   79.41   34.52
  242.51   87.05   60.54   37.27
   64.25   69.44   51.52   56.46
    8.76   56.88   66.41   46.55
  159.49   50.44   53.41   52.42
  106.29   58.98   53.51   66.45
   54.07   77.67    3.59  114.53
  173.66   87.43   64.29   39.87
  292.37   21.82   44.92   45.26
  129.70   68.91   12.31   97.68
  293.46   68.24   80.79   35.61
  246.22   54.84   47.14   89.82
   60.32   72.70   17.81   45.97
  240.98   23.56   42.15   29.77
  215.67   57.13   17.67   33.28
  110.70   49.80   12.39   33.27
  350.11   63.95   89.71   26.72
  275.51   66.79   65.61   36.67
  282.24   32.15   76.97   50.93
  253.77   67.56   16.35   33.00
  286.04   41.56   45.62   41.86
  155.74   73.25   14.11   69.16
  140.67   76.52   41.02   29.82
  243.91   21.30   56.91   43.89
  322.76   82.95    5.16  164.83
   75.72   86.40    6.38   43.62
   42.40   40.59   14.91   28.88
  331.15   65.83   18.63   64.68
   53.93    4.23   40.93   42.99
  186.36   51.82   76.70   23.27
  227.59   73.92   79.41  121.46
   97.82   18.88    9.16   40.08
  308.20   56.81    9.33   51.97
   19.15   75.57   56.07   47.43
   76.38   67.24   34.96   42.57
   54.28   42.17   84.66   51.12
  302.64   63.80   80.47   34.80
  219.96   67.49   19.72   46.12
   11.28   67.26    8.33   24.40
   88.96   67.53   19.16   46.90
   45.14   78.72   78.04  134.71
  333.70   88.16   57.18   33.94
  227.99    6.12   81.25  164.53
  305.94   76.39   15.80   95.69
  200.20   41.40   64.80   34.24
  199.91   25.60   73.82   24.92
  272.42   32.22   82.77   50.64
  358.64   53.28    6.57   14.53
   95.02   40.67   41.91   43.73
  114.10   80.51   14.70   66.02
  329.06   17.44    1.76   75.41
  212.02   25.10   31.90   67.90
   45.51   38.95   63.84   30.34
  206.40   71.48    2.26   46.07
  316.47   51.27   17.54   40.14
   27.07   24.08   38.36   74.22
  186.47   15.29   59.53   76.09
  144.11   77.31    6.31  131.68
  262.62   84.19   45.72   25.63
  114.82   49.67   68.11   67.72
   76.64   35.96   55.90   43.40
  332.67   85.03   59.97   38.71
  351.00   36.97   27.04   46.72
  269.93   84.65   70.19   33.46
  135.32   51.15   32.51   64.05
  220.51   48.21   43.97   67.69
   84.41   54.57   79.65   46.46
  146.41   18.23   16.37   35.13
  133.18   57.54   22.41   79.52
  248.66   53.63   75.25   29.66
  306.31   67.73    7.68   73.05
  198.83   54.47   72.88   37.78
  317.50   64.93   55.45   39.89
  341.65   42.62   63.60   51.50
  125.55   75.75   68.03   42.24
   90.23   33.20   41.72   39.33
  312.75   68.34   65.47   43.06
   34.16   89.33    2.63  129.15
   10.79   58.20   12.48   25.49
   43.50    3.63   35.57   47.84
  199.09   77.96   12.57   30.61
  129.09   22.96   41.21   19.43
  229.75   10.87   51.41   41.74
  171.21    6.16   70.42  105.65
  115.57   79.27    1.56   76.91
  144.58   78.25   60.48   37.23
  290.97   50.65   75.47   65.43
   37.42   72.26   33.97   37.57
   45.16   37.87   48.45   36.96
  331.43   34.63   63.48   56.30
   23.08   89.84   86.98   68.14
  111.53   49.09   60.13   80.21
  346.71   71.99    7.39   45.26
  322.19   84.99   53.79   43.59
  125.64   79.88    9.77   97.52
   62.44   60.85   19.59   56.35
  110.76   32.28   59.17   49.63
   74.82   29.56   72.55   36.17
   15.81   77.89   87.04   59.18
  120.64   43.98   35.91   49.49
  158.30    9.34   24.88   48.44
  359.17   20.28   10.00   35.31
   20.57   87.52   61.31   46.99
  203.72   65.55   88.96   38.75
  352.23   67.90   89.67   30.35
  199.07   87.41   59.92   43.37
    1.26   45.76   20.91   32.53
  219.28   61.67   28.16   43.29
  108.99   70.06   69.91   36.83
  195.13   82.44   80.63   43.39
  299.66   30.05   15.56   45.55
  141.16   72.58   36.11   55.23
  223.82   68.68   12.51   48.72
  348.66   46.18    3.96   25.79
  244.74   60.11   57.90   77.54
   57.95   51.47   85.84   42.80
  135.72   79.20   34.72   36.98
  297.59   14.68   14.73  106.43
  320.97   65.50    1.63   77.00
   76.07   30.27   18.96   37.42
   61.35   48.47   42.65   89.28
   39.50   75.85   11.12   64.15
  104.76   69.19   81.73   42.71
   11.66   63.13   65.58   40.84
  126.79   57.63   59.59   45.95
  247.51   72.82   59.41   67.98
  204.37   84.80   48.74   42.27
  343.61   26.56   81.89   41.12
  201.95   25.19   17.58   73.23
   64.26   47.75   71.43   38.03
  199.31   80.36   17.70   39.85
  235.23   62.64   19.52   38.23
  300.78   75.13   60.98   30.09
  265.28   40.36   13.88   86.28
  340.47   82.68   89.30   62.27
  324.67   61.69   25.32   77.49
  205.32   85.53    8.23   50.69
  160.50   52.14   72.46   28.91
  223.54   89.59   56.41   49.55
  254.20   62.34   62.88   54.57
  232.28   86.48    4.32  166.30
  197.57   20.32   32.78  121.38
  319.18   74.10    1.65  110.91
  353.50   49.55   83.62   16.52
  157.48   42.91   13.07   21.67
   11.56   29.68   82.42   12.13
  261.32   39.71   71.38   31.24
  359.68   21.19   22.84   51.68
  210.89   87.97   56.06   36.34
    1.71   44.81   70.91   38.13
  213.06   49.67   49.87   74.17
  116.16   55.57   63.54   72.27
  298.50   55.23   38.52   76.02
  333.39   30.39   18.51   29.91
  248.92   83.38   40.35   15.27
   59.29   58.08   36.29   67.47
  134.24   63.80   20.23  112.35
   30.34   51.71   89.92   26.75
  102.83   86.42   52.36   22.15
   53.02   79.77   55.79   43.49
   92.72    6.74   27.85   81.91
  128.70   84.24   38.34   40.00
  126.08   72.11   62.85   42.24
  270.11   81.87   13.12   28.10
   57.94   73.65   45.99   33.54
  210.87   72.13   87.02   60.90
  293.01   78.61   49.88   23.38
  165.39   63.06   16.17   45.08
   86.17   86.31   89.15   58.10
  225.53   65.96    0.59   88.48
   16.50   87.58   26.90   50.60
  150.12   89.84   82.22  121.68
  337.72   83.01   41.23   36.57
  272.17   31.17   13.60   55.62
  191.87   56.29   42.23   90.88
   72.64   57.90   53.36   80.49
  269.88   54.50   25.46   52.49
   74.10   64.43    1.92   47.24
  293.36   88.25   52.79   25.89
  351.18   87.22   32.43   37.67
   92.22   80.88   35.90   24.86
  120.94   44.41   48.18   66.30
   92.19   39.87    2.54   83.58
  343.59   66.55    9.01   30.59
  200.69   57.48   52.46   68.20
  296.87   88.32   26.71   37.74
   80.80   42.89   13.84   84.32
  334.33   68.15    2.76   48.66
  258.04   36.63   42.42   40.04
  123.53   33.70   85.39   37.17
   87.76   51.40   16.29   70.23
  302.04   17.94   40.13   39.60
    9.67   37.17   82.28   18.61
  351.29   61.08   79.85   23.66
  102.84   48.78   66.96   70.87
  183.78   44.22   70.33   32.17
  235.41   62.76   28.41   39.30
    7.61   82.38    1.62   48.47
  222.31   61.84   72.76   65.43
  294.01   82.22   15.10   67.48
  128.65   37.49   70.87   40.59
  134.73   77.01   28.75   68.56
  298.87   81.84   50.79   23.08
  287.56   83.99   68.80   27.18
  146.10   50.03   23.70   35.52
   27.17   54.25   49.01   75.73
  191.75   81.37   71.68   36.44
   14.74   48.20   71.40   33.02
  186.50   17.35   88.01   25.01
    0.88   36.09   11.74   26.32
  329.84   89.30   59.18   33.71
  241.90   74.87   22.86   40.04
  341.48   68.44   21.22   50.50
  250.06   72.46    3.31   43.68
   22.47   63.60   47.23   38.84
  358.27    4.54   11.62   44.78
  207.49   43.48   32.56   57.71
  211.80   34.00   67.62   30.10
  331.69   47.46   17.00   29.06
  123.91   72.47   33.15   67.35
  230.35   78.76   63.08   73.66
   84.05   74.73   25.21   35.55
  241.26   50.18   26.22   54.44
   83.91   74.68   15.12   25.90
   19.89   55.05   36.83   61.10
  219.48   48.42   66.76   30.09
  224.13   85.59   19.67   83.26
   78.20   89.12   18.74   36.11
    8.14   74.17    3.46   36.81
  221.46   53.29   52.66   68.99
  300.65   47.55   86.22   31.39
   61.13   83.58   10.77   80.04
  192.96   52.13   23.26   33.09
  173.05   86.11   78.08   48.67
  217.48   50.82   81.92   34.77
  329.43   40.21    3.65   37.96
  211.51   76.02   54.61   41.79
  339.11   77.41    4.47   62.64
   53.62   64.27   41.22   52.20
    4.39   25.30   15.49   38.22
  235.44   84.05   52.27   45.99
   69.51   77.98   69.37   54.16
   20.49   84.83   16.53   59.86
  108.14   46.32   87.64   59.63
  296.47   62.68   84.76   43.75
   40.42   55.00   43.10   69.61
   14.01   39.80   49.29   68.03
  189.75   89.86   71.04   47.16
  311.90   41.05   36.76   40.91
   34.97   26.05   81.06   33.62
  112.59   32.28    9.87   44.15
    6.91   85.50    6.88   52.85
  311.51   70.84   21.14  118.53
  344.19   82.89   72.11   41.96
   84.59   36.02   21.04   54.83
  304.61   74.42   11.62   95.22
  223.78   27.07   10.72   73.47
   22.49   48.89   77.70   32.09
  219.38   37.05   84.31   29.31
  102.27   89.12   76.76   50.41
   44.77   50.93   43.86   65.40
  196.61   82.96   86.96   42.73
  214.27   44.40    8.93   48.42
  358.34   75.74   15.70   31.38
  239.51   84.03   58.35   45.05
    7.59   52.23   63.72   42.27
   38.86   48.37   70.64   34.94
  329.34   59.84   50.93   47.73
  267.33   77.76   29.73   35.40
  181.45   83.91   64.92   38.13
  177.44   53.69   66.57   31.03
  267.88   62.55   18.52   47.98
  232.87   51.36   69.09   36.94
  275.17   85.28    2.35   51.54
  204.11   79.28   48.36   40.42
  152.91   88.72    5.05   89.46
  321.39   78.60   58.03   30.40
  107.11   80.29   20.81   42.98
   22.70   63.10   64.37   56.88
  357.17   63.42   62.96   43.55
  275.60   57.31    7.68   54.14
   14.51   86.55   76.63   46.47
  124.02   67.48   66.39   39.74
  257.06   35.82   61.86   43.26
   77.41   73.82   10.24   31.85
  254.39   73.02   74.29   58.14
  240.80   58.76   39.48   68.64
  243.81   42.58   33.71   71.89
   36.41   46.26   10.83   39.65
   94.20   79.70   17.13   32.74
  218.65   10.16   79.39   75.41
  148.62   64.90   50.04   44.98
  324.77   55.58    2.31   35.41
  125.89   65.78   50.90   47.45
  173.67   20.51   72.40   60.51
  257.43   48.05   63.78   28.91
  128.99   68.96   31.98   91.68
   69.95   30.10   60.61   40.84
  143.26   44.46   51.53   43.17
  104.81   83.70    3.16   51.57
  261.39   88.54   30.85   13.78
  323.92   48.55   14.89   29.35
   17.29   69.39   28.24   52.95
   93.92   56.59   16.52   52.88
  302.78   80.28   78.39   43.20
  284.48   85.26   78.40   41.25
  318.22   55.75   83.05   50.58
  265.08   72.29   84.27   39.76
  307.79   34.35   51.03   51.83
    7.42   82.65   80.50   35.45
  226.68   81.33   74.72  137.94
  195.72   51.52   35.49   70.10
  141.64   47.92    0.47   53.51
   92.22   37.01   62.05   33.48
  321.92   55.65   20.18   51.69
  234.42   53.39   53.80   74.73
  167.84   75.29   78.05   35.61
   40.79   59.35   53.30   67.37
  328.82   49.11    5.04   35.54
  176.24   79.51   10.94   25.70
  238.20   77.31   47.93   37.04
  210.68   81.45   39.75   27.62
  202.43   55.00   48.03   82.52
  239.58   88.93   58.01   30.58
  134.00   64.59    3.14   80.96
   40.14   71.00   10.89   52.84
  145.83   15.05   44.24   28.71
    5.76   57.52   58.00   54.03
  160.82   53.53    5.72   19.84
  218.63   26.45   69.51   26.42
  274.00   26.07    0.36   47.17
  137.44   44.06   25.07   29.95
   29.24   74.53   56.10   45.61
  164.57   40.38   39.04   63.58
  218.37   49.46   85.37   36.44
  181.90   87.42   70.56   38.36
   22.59   68.84   64.20   47.41
  149.81   76.28   76.27   56.03
   80.83   59.87   43.24   76.89
  283.91   45.24   45.00   47.96
  165.03   86.24   34.14   37.50
  307.23   46.90   53.31   83.29
  185.12   74.92   45.93   77.62
  133.87   34.65   29.93   35.47
  122.53   87.71   30.96   36.89
  296.15   64.88   16.01   57.06
  175.00   52.81    3.02   19.38
  169.55   51.09   21.94   35.59
  113.71   23.55    4.73   52.89
  100.89   24.86   48.88   46.42
  304.38   70.97   71.41   47.11
  330.84   43.15   13.21   25.80
   10.31   42.26   19.62   31.22
  313.87   45.31   84.07   46.14
  289.13   78.04   41.52   30.61
   63.17   75.17   63.54   64.14
   93.14   83.36    1.93   51.68
  264.61   62.51   48.18   68.28
  111.47   35.42    4.99   38.35
  175.61   62.07   83.50   19.16
  169.48   64.27   46.00   67.57
  290.70   23.11   67.43   28.57
  278.84   80.01   38.81   29.27
  230.70   87.49   51.81   56.65
  208.05   63.32   85.94   34.11
  166.95   30.98   70.41   47.13
   77.92   71.68   63.77   56.75
   86.19   77.31   55.69   29.60
   22.41   39.61   64.21   34.29
  139.49   81.93   21.59   89.78
  347.79   45.85   56.17   68.48
  257.09   45.10   57.32   39.01
  206.10   67.51   72.78   55.11
  270.59   33.06   58.96   52.35
  273.75   72.41   18.72   35.89
  127.66   80.15   75.84   60.07
  111.72   38.06   44.70   39.50
  169.34   24.14   45.31   87.25
  268.88   68.17   14.17   23.12
  194.98   71.25   33.68   64.10
  193.52   35.18    8.83   20.88
  250.58   77.31   28.50   24.28
  173.92   39.21   22.24   34.14
   97.53   62.75    1.99   44.15
  194.81   60.52    7.85   20.87
   57.63   45.08   20.92   35.58
   57.03   13.76   79.31  111.65
   16.62   69.86   77.97   38.49
  112.01   82.31   70.72   30.14
  159.28   87.01   63.91   53.51
  292.17   81.42   72.15   29.69
  317.59   31.89   23.62   32.54
   31.49   78.73   86.36   91.34
  209.17   27.77   30.72   77.37
  319.35   55.91   51.09   64.23
  346.46   74.95   56.55   44.67
   73.02   53.40   13.72   60.24
  167.70   36.08   13.35   15.89
  203.22   43.95   50.77   62.99
  131.80   86.08    9.83  143.04
  170.65   61.45   41.34   67.87
  106.20   76.16    1.03   56.05
   61.14   80.65   39.26   26.62
  247.10   87.76    2.66   75.56
   19.80   85.99   76.31   52.41
  114.77   56.32   47.69   93.44
  179.78   47.41   53.22   74.99
  354.86   53.40   86.48   11.72
  268.04   54.39   47.18   66.42
  295.94   62.56   36.00   74.82
  293.53   44.24   86.68   39.78
  150.62   79.76   30.46   40.45
   47.43   41.76   48.79   46.58
  234.13   25.18    1.77   76.14
   18.98   51.96   17.59   17.39
  263.03   89.41   83.28   44.18
   46.14   46.79    5.45   52.02
  153.18   17.41    4.89   39.06
   76.69   62.45   16.66   59.23
  138.43   85.62   30.32   56.28
  230.78   44.04   73.69   21.61
   51.81   39.19   29.52   49.90
  238.46   79.80    4.48   81.99
  267.58   77.22   37.98   26.16
   80.00   66.05   12.89   34.93
   85.91   83.74   78.39   45.62
  317.65   55.24    5.54   50.56
   15.79   72.70   45.15   47.77
  333.17   53.06   26.49   54.79
   28.07   72.49   52.80   42.31
  257.54   68.23    8.98   32.36
  338.58   45.16   86.52   25.74
  287.73   31.43   39.09   44.82
   67.19   45.89   55.63   48.87
  106.81   39.33   24.15   28.84
  225.93   79.34   34.46   28.77
  226.34   45.32   44.93   59.56
  175.59   58.57   46.32   90.44
   57.22   34.55   29.70   61.30
   58.98   70.21   42.06   32.54
   58.02   60.34   85.99   52.61
  289.28   88.81   79.15   50.85
  131.50   19.53   50.90   28.06
   64.10   41.14   46.31   55.17
  239.33   70.90   50.61   57.58
  300.47   82.82   70.51   40.37
   54.57   59.89    7.05   44.51
   59.35   29.30   52.95   38.89
  283.18   66.59   52.39   47.85
  102.50   79.55   13.76   41.42
   17.96   42.85    5.67   26.39
   79.60   33.93   63.84   26.93
  248.60   48.12   44.97   67.19
   59.95   82.51   76.62   99.08
  204.53   83.26   43.75   38.78
  299.32   20.09   82.79   55.10
  283.34   33.40    8.94   43.51
   90.95   36.09   79.80   57.50
   78.75   84.71   50.08   18.49
  348.14   61.07   54.36   49.98
  269.65   49.43   61.09   41.05
  215.11   72.79   74.02   84.15
  283.47   14.58   15.65   73.08
  350.67   68.26   32.03   54.63
   54.00   28.57   53.39   36.06
  120.96   72.70   81.92   62.54
  327.72   32.64   33.28   37.23
   45.51   10.41   10.61  124.46
  221.28   24.61    8.11   94.89
  291.25   60.24   10.15   46.38
  167.41   43.19   29.45   49.06
   67.02   50.23   60.77   50.20
   11.08   57.55   46.61   73.90
  122.55   68.86   62.09   44.77
  243.96   50.26    9.96   36.03
  199.30   84.03   70.52   50.04
  137.65   50.07   86.37   54.50
  198.75   14.59   17.67  113.90
   95.12   14.33   52.50   63.11
  169.48   58.85   16.19   37.44
  333.19   41.45   65.71   42.72
  126.60   87.91    5.32  136.05
  106.78   80.30   51.57   20.16
   16.99   81.44   14.72   50.96
  116.85   70.67   45.87   30.93
  256.33   54.07   35.86   65.43
  207.72   63.97   28.37   45.70
   92.12   26.57   23.00   35.55
  327.69   82.06   66.64   44.96
   83.23   26.32   20.99   33.46
    3.32   40.79   57.05   64.09
   41.62   68.14    6.68   63.57
  192.74   38.61   73.25   24.87
  277.43   38.45   29.18   35.98
  355.98   77.00   47.87   79.10
   47.43   68.12   65.68  102.04
  194.54   35.00   32.04   94.76
  133.93   64.25   28.23  102.90
  349.68   21.96   70.93   70.40
  357.65   60.54    8.96   22.60
  217.73   76.46    7.80   75.26
   86.42   71.00   40.99   43.12
  240.23   53.29   66.80   48.98
   29.24   59.11   44.80   51.24
  110.41   81.04   38.24   29.41
   41.37   59.38   23.98   47.60
   34.73   78.44   34.28   30.34
   56.72   69.88   28.25   43.08
  144.15   82.73   82.09  112.24
   29.32   33.85    8.74   44.91
   43.30   28.12   41.02   42.57
  261.60   42.88   65.19   29.38
  217.17   59.00   67.05   65.57
  278.45   89.12   14.22   43.80
  305.04   36.83    5.03   55.26
  250.89   48.81    5.24   43.65
   77.53   24.69   16.43   30.58
  229.39   29.00   37.45   40.11
   94.08   32.32   10.72   53.18
  110.65   64.37   41.78   61.86
  349.88   41.63   77.49   26.73
  252.34   34.42   13.83   53.24
  124.24   47.63   87.02   45.43
   44.99   79.44   18.21   64.83
  115.69   23.15   82.11   47.77
  162.68   82.27   19.35   43.63
   69.66   81.39   82.28   68.05
  241.84   38.46   77.33   33.64
  123.54   67.00   73.55   43.73
  193.33   65.25   71.45   46.41
   22.58   83.98   39.99   48.11
  281.57   62.05   20.76   50.42
  349.02   72.38    2.45   33.99
  302.48   44.16   61.50   66.57
  313.92   56.90   34.79   86.35
  248.99   52.13   67.68   34.97
  188.82   27.41   41.39  120.24
  254.63   63.53   12.19   33.18
  198.20   70.08    2.33   35.52
  332.84   24.15   71.56   90.06
  131.85   19.92    9.72   83.20
  227.67   43.11   11.07   40.29
   94.01   83.74   26.62   21.80
  300.48   13.18    3.64   94.64
  356.98    7.68   56.52  171.10
  315.21   61.29   14.61   67.32
   45.65   19.26    2.46   96.13
   48.91   71.72   50.09   50.64
   31.40   77.21   50.72   32.47
  343.30   50.24   53.85   64.59
  162.70   70.25   31.80   52.28
  224.47   30.01   59.41   31.37
  339.83   71.83    5.85   53.16
  154.26   50.66   59.46   47.09
  188.95   20.20    3.82   35.85
  179.01   65.77   51.90   84.01
  173.39   47.76   19.08   35.28
   65.40   53.99   89.16   31.40
  142.94   56.03   83.36   38.43
   50.17   63.74   39.19   43.74
  122.52   80.47   35.13   32.02
  111.32   85.10   27.81   32.39
  122.02   20.52   81.89   52.79
  285.37   73.17   74.01   30.76
  111.53   35.01   15.16   31.91
  171.70   32.63   71.37   38.91
   43.91   70.60   84.05  112.49
   52.26   61.60   88.72   66.62
  100.33   75.61   17.83   43.54
   41.09   29.69   48.46   37.36
  353.61   83.42   86.45   41.70
  139.45   77.20   63.59   37.63
  110.98   13.64   27.56   96.93
  287.96    8.70   62.66   48.46
  315.49   80.30   33.65   45.66
  232.97   67.57   59.72  104.87
   38.42   18.94   52.62   32.73
   13.67   41.52   27.78   51.59
  157.87   76.81   69.66   44.97
   89.83   46.86   29.74   47.29
   81.68   55.19   40.53   82.51
   73.87   81.75   29.11   26.03
  310.58   49.17   89.43   47.20
  153.48   57.82   23.71   58.50
   37.81   67.87   65.05   80.24
  102.21   10.35   59.93   46.52
  353.74   64.56   69.81   32.99
   10.92   85.09   39.12   83.99
   60.33   46.42   48.42   66.73
  127.42   81.42   83.04   91.79
   46.08   56.00   45.78   68.49
  275.52   25.90   69.26   36.80
   52.49   25.99   61.33   24.75
  184.76   21.25   55.19   84.39
  284.27   29.31   50.19   46.95
  214.38   22.06   49.86   31.37
   98.42   55.63   62.51   59.49
   37.93   56.40   20.75   42.81
   51.99   89.72   47.57   48.02
  298.52   72.89    7.60   77.51
  103.06   60.67   63.91   57.22
  211.78   71.14   48.61   39.94
   50.38   44.83   35.99   54.76
  322.01   55.82   64.93   49.68
  325.08   19.49   35.32   31.27
  217.25   88.57   83.82  143.47
  148.70   64.58   82.15   42.11
  242.87   59.49   72.12   56.96
  210.86   41.56   86.46   36.88
    3.65   71.51   35.81   66.31
  108.55   83.15   89.73   65.07
  271.24   22.49   18.20   48.08
   54.32   56.25    0.39   37.07
   60.03   49.26   16.96   34.98
  166.82    6.85   55.31  174.89
   53.12   81.42   20.61   57.69
  128.74   70.26   19.81  118.29
   89.01   74.87   40.26   30.50
  251.71   64.89   41.09   58.92
   97.76   74.20   59.04   39.02
  118.70   67.63   71.94   46.35
  138.84   71.03   31.45   75.19
  193.18   83.15   10.56   28.17
   48.89   77.48   45.33   37.81
    0.12   43.95   31.43   55.32
  324.87   55.22   56.41   55.83
  269.21   64.96   74.70   42.71
  301.94   87.49   56.60   28.99
  156.98   54.04   20.62   37.36
  328.56   80.03   71.60   52.90
  139.11   44.75   51.26   47.99
  213.18   75.51   22.13   43.27
  215.30   29.22    0.13   42.16
  349.64   80.41    1.08   55.37
  332.49   85.94   11.03   94.82
  105.59   43.16   36.77   51.24
  197.61   43.66   70.88   30.63
  111.07   59.29   69.93   58.59
  247.35   30.54   25.27   45.82
  355.48    7.34   67.47   92.44
  353.88   54.92   32.37   55.60
  285.75   36.89   61.26   64.82
    2.63   66.69   50.66   76.81
  185.57   42.54   38.90   93.89
   68.14   58.83   25.48   63.30
   72.94   87.94   63.53   29.38
   42.62   81.47   35.73   37.83
  273.80   87.31   13.37   43.55
  328.79   71.09   61.37   39.17
   96.73   48.81   30.52   48.41
  182.33   75.97   67.07   39.22
   99.08   37.78   83.38   78.74
  348.19   68.38   58.43   51.33
  340.15   59.32   80.39   23.63
  338.66   81.17   58.40   33.64
   31.83   19.71   69.24   34.68
  349.38   34.81   33.85   61.71
  197.72   28.35   51.96   62.27
   67.42   25.46   46.34   45.43
  199.22   83.02    3.20   47.29
  286.12   84.20   44.32   27.48
  150.91   69.16   18.39   81.77
   64.85   38.05   18.60   49.48
  216.18   37.78   73.08   17.92
  150.38   66.67   86.64   58.42
   78.18   70.13   84.97   49.15
  217.43   35.99   77.42   19.63
  156.35   71.76   44.72   34.02
  247.04   77.43   39.47   22.18
  322.93   77.32   86.39  108.07
  131.28   11.60   72.96   59.97
  253.02   54.00   86.08   32.53
  183.17   59.91   49.50   94.47
  189.97    8.04   77.34   49.80
   88.04   43.37   70.28   42.57
   77.01   69.89   46.49   45.72
   31.19   39.95   82.26   22.10
  321.22   35.75   35.71   35.98
   37.71   81.53   59.22   50.59
   68.36   77.48   73.70   64.21
  341.44   13.71   68.88  152.83
  107.68   14.59   46.73   41.55
  203.57   31.64   78.66   23.29
    5.92   73.85   48.19   70.87
  335.30   63.19    6.67   34.79
  139.70   84.30   64.20   63.13
   47.16   24.91   60.09   22.19
  200.50   69.37   51.92   57.84
   87.51   42.43   63.10   32.14
  169.49   75.09   16.41   41.98
  239.12   15.69   17.08   54.09
  165.42   80.08   51.73   46.95
  254.38   86.20   64.41   33.73
   74.71   42.63   22.72   75.71
  141.91   36.97    4.53   35.72
  180.81   35.44   18.15   33.33
  308.12   21.61   23.61   44.57
  200.57   50.93   58.09   64.48
   26.36   20.55    7.91   64.73
  288.67   67.79   62.38   38.79
  333.12   64.74   28.49   67.79
   21.32   58.56   11.68   25.51
  284.79   43.50   25.91   32.91
    3.28   29.88   24.69   50.33
  224.01   43.07   30.51   45.22
  190.71   42.60   77.08   27.35
  296.15   49.51   11.79   27.50
  347.11   76.85    8.94   44.88
  174.15   33.32   14.86   27.77
  193.74   74.96   24.44   46.97
  314.43   59.17   29.80   91.06
  286.68   55.00   28.07   46.95
  357.95   72.15   60.76   50.45
  255.78   79.50   69.32   46.53
  248.99   45.07   48.05   52.75
  100.49   57.85   13.43   44.88
  347.84   38.63   42.16   68.27
  148.35   61.11   73.86   33.51
  209.21   22.26    9.48   87.34
  124.90   78.22   57.80   20.74
   53.40   87.24   34.07   38.95
  272.83   27.84   58.96   44.69
   41.34   16.51    2.00  100.06
  216.97   58.01   47.86   84.59
   63.05   74.47   69.78   76.81
  185.27   30.82   28.14   67.95
   46.39   49.50   89.82   52.45
  251.59   70.55   20.67   28.88
  138.88   52.17   45.05   69.39
  224.25   85.47   49.20   52.79
   49.46   42.93   42.76   56.61
  323.24   63.55   43.51   58.21
  161.62    4.10   73.73  166.39
  165.59   59.70    2.30   18.76
   57.42   24.21   84.01   76.33
  293.92   48.04   78.76   49.82
  333.40   18.97   56.95   73.96
   95.77   78.43    2.56   53.61
  131.72   70.98   63.69   45.76
   91.52   39.18   38.71   47.07
  305.08   84.02   73.02   62.68
  249.65   50.88   81.91   30.94
  276.99   23.18    7.30   51.10
  334.33   65.70   49.65   43.53
  297.11   46.73   50.03   83.34
  246.07   74.86   51.13   36.81
  186.49   49.89   42.50  100.25
  240.18   30.53   18.08   49.76
  144.90   42.23   23.50   29.60
  179.58   85.39   86.94   38.53
    6.39   44.20   87.80   33.35
   49.85   28.34   39.42   37.49
   26.63   85.06   62.93   49.70
  192.02   41.45   16.17   28.91
  113.06   77.62   88.23   64.39
  231.92   60.71   49.46   86.28
    4.08   15.15   47.96  129.67
  158.91   79.64   83.62   55.67
   17.51   57.36   71.16   46.78
  186.77   75.07   23.07   38.77
  100.67   73.21   42.28   36.68
  292.14   85.04   47.31   21.62
  236.37   77.43   33.66   16.90
  282.85   67.51   86.68   36.29
  123.66   67.19   16.20   90.57
  265.11   43.29   38.78   41.63
  314.19   14.01   40.19   28.66
  236.23   25.65   68.86   32.73
  275.25   14.03   55.95   69.26
  357.66   59.98   58.75   51.92
   81.67   12.83   30.69   37.85
   95.62   73.74   86.24   41.24
  336.03   88.37   52.31   39.73
  299.65   44.87   30.40   40.86
  174.90   63.80   71.62   28.58
   63.31   44.43   83.21   35.03
  195.41   16.57   31.56  150.18
  157.77   68.08   72.20   42.98
   99.23   88.54   49.74   27.28
  200.52   87.14   77.94   62.73
  111.68   66.72   55.83   46.69
  115.06   83.16   89.90   79.62
   43.21   71.76   41.67   32.69
  246.70   71.84   80.38   66.28
  247.66   73.30   13.26   38.83
  306.45   78.66    2.14  112.60
   43.12   77.94   50.86   39.71
  342.15    9.39    6.14   43.66
  332.68   79.62    2.18   85.92
  207.93   71.80   83.43   56.74
  330.92   33.76   72.46   50.34
   89.82   68.38   81.55   36.92
   67.29   62.87   40.31   57.92
  264.27   13.20   27.47   59.19
  289.48   61.49   59.27   62.82
   99.88   47.35   84.78  105.13
  186.23   73.89   71.13   35.97
  125.19   54.10   14.36   33.21
  336.23   73.45   83.42   42.32
   40.80   49.66   74.06   36.60
  235.50   62.59   58.26  102.93
  170.17   69.19   72.21   34.38
    7.09   67.16   62.11   41.63
  168.12   57.49   83.74   20.77
   97.54   39.31   25.33   36.00
  326.16   72.75   54.60   34.76
  204.66   78.87   40.24   36.03
   82.61   50.24   31.68   67.42
  327.93   47.43   62.88   39.16
  338.98   37.74   12.03   22.97
  289.07   47.73   58.27   77.19
  258.43   40.37   16.72   75.28
  232.76   85.29   63.56   70.91
  154.03   77.37   89.56   78.60
  127.00   41.85   30.20   44.03
  337.01   41.56   76.86   40.18
   73.07   36.53   86.53   36.63
  283.62   52.35   40.12   54.65
  273.36   60.59   26.03   50.59
  232.12   45.99   32.46   53.56
   17.22   74.97   73.37   41.42
   41.16   15.59   59.36   33.15
  357.16   30.93    9.46   12.95
  342.82   86.23    0.27   62.59
  249.15   68.80   43.79   42.32
   33.77   36.13   37.06   58.97
  356.67   58.84   23.20   41.05
  270.56   54.46   85.89   59.44
  129.01   77.32   15.86  105.68
  301.64   82.87    2.14   98.48
  262.92   55.70   79.32   43.72
    5.29   55.17    6.39   15.57
  292.22   68.33   37.08   66.82
  315.14   48.57   67.22   37.21
  103.70   20.37   43.06   39.86
  224.59   79.88   25.95   35.95
  265.00   84.65   31.13   13.33
  291.60   33.57   81.77   48.22
   92.23   71.31   43.64   46.56
  188.89   78.84   67.20   34.38
  166.72   44.18   57.79   57.13
   68.17   72.50   50.79   39.04
  275.51   27.91   17.32   42.33
   56.48   22.23   88.81   76.25
  333.55   37.13   42.49   54.73
  114.22   78.86   19.62   63.15
  248.82   63.27    7.54   44.07
  201.36   78.22   66.74   49.01
  255.98   12.35   82.63   69.86
  169.70   68.22    2.37   31.04
  339.20   67.02   77.42   26.91
  116.74   47.77   72.67   61.10
  277.66   57.12   54.41   57.13
  115.61   60.03   36.81   81.86
  157.31   35.56   60.72   70.73
  305.81   54.80   54.39   81.33
  337.15   80.32   21.20   54.58
  269.85   21.21   86.96   42.17
  199.86   44.97    9.38   27.26
  256.57   48.85   52.14   52.62
  328.64   25.36   51.85   61.65
  182.37   61.94   89.13   13.09
  359.27   81.31   62.97   39.92
  249.95   55.16   58.09   53.21
  312.67   63.62    5.61   73.16
   24.96   71.95    4.84   50.76
  238.04   68.24   32.62   45.07
  161.02   59.99   88.58   15.41
  197.45   47.77   81.05   29.01
   81.35   69.85   72.31   45.31
   65.16   29.97   53.52   42.14
  350.61   19.33   77.52   58.16
  345.76   84.84   39.37   48.06
  133.09   85.74   52.80   35.86
  179.96   64.43   16.39   31.44
  210.07   58.56   75.24   42.19
  246.94   64.45   65.86   69.94
  345.65   80.39   15.05   54.26
   15.17   76.00   52.48   49.51
  304.10   51.43   89.99   37.36
  201.00   45.07   26.88   52.89
  316.13   28.74   50.88   44.64
   46.12   53.45   35.74   59.56
  166.74   50.38   33.84   59.33
  272.66   58.67   79.70   45.95
   77.21   84.90   23.35   25.77
   27.46   39.81   36.21   53.90
  227.27   37.15   71.64   15.28
   87.78   33.09   76.28   41.25
   16.40   37.28   74.29   26.51
  104.65   74.01   82.47   46.86
   35.95   69.18   45.33   36.49
  278.50   14.49   27.04   84.47
  210.28   56.73   10.34   26.71
  176.55   65.02   37.05   69.63
  196.49   59.02   33.21   57.70
   80.00   43.23   39.08   52.29
  136.98   24.36   89.30   84.51
   46.32   81.01    8.93  112.46
  346.52   84.04   52.15   47.60
  283.02   79.99   54.67   24.14
    9.53   37.04   20.80   35.42
  199.50   31.20   23.33   67.71
  135.42   51.53   27.61   54.69
  209.51   87.02   46.88   39.51
  277.46   51.96   40.48   52.03
  265.17   59.97   39.48   63.68
  304.55   55.14   39.68   92.65
   12.07   19.03    9.66   38.15
    6.46   63.80   66.41   41.46
   19.16   80.88   50.20   44.08
   22.44   71.78   72.31   55.66
  173.50   61.08   24.92   44.51
   86.45   85.79   46.31   22.87
   40.53   16.15   36.47   38.82
   92.55   29.12   71.26   37.68
  108.47   51.78   18.78   33.66
  131.19   48.28   54.44   54.67
  170.91   68.29   10.97   34.76
  222.53   39.58   56.56   42.13
  216.92   54.78    5.45   46.64
   87.31   58.12   67.74   58.22
  237.06   57.75   88.16   38.79
  183.82   45.99   74.34   26.14
  114.49   72.88   51.41   30.01
   50.23   59.49   64.97   95.37
   94.89   28.87   16.09   41.61
  235.42   30.26   76.68   43.11
   53.88   63.94   64.24  114.63
   11.01   66.37   75.06   36.82
  301.25   77.39    1.76   79.17
   31.04   44.73   17.27   28.09
   49.74   23.73   33.33   34.08
  327.81   31.48   85.77   42.62
  257.14   82.49   21.67   20.41
  161.36   40.14   53.04   69.61
  253.96   33.83   86.76   33.08
   99.68   85.16   27.63   20.09
  178.05   51.81   26.43   41.30
   23.67   35.17   71.53   26.82
   25.38   79.68   82.51   65.28
  285.76   59.62   33.23   61.99
  167.18   86.13   73.86   47.30
  193.95   67.14   67.23   44.63
  299.45   53.87   30.64   54.25
  221.68   15.97   66.01   42.34
  277.80    6.95    0.41   59.49
  309.16   68.93   45.71   45.84
   26.62   89.87   59.58   37.70
  325.50   46.21   32.31   45.59
  222.08   32.60   86.06   32.48
  304.63   25.27   29.61   35.18
   44.81   80.52   25.04   47.35
   78.87   82.51   55.47   21.49
  228.75   86.92   25.68   71.11
   37.33   78.93   30.22   31.84
  299.49   42.50   68.10   59.68
   28.73   35.91   61.12   37.85
  343.36   34.91   34.45   57.21
  309.63   43.78   59.93   57.51
   79.85   54.49    2.11   49.82
  283.57   58.17   69.43   65.38
  318.51   88.79   36.91   49.74
  170.46   72.76    6.40   42.76
  158.96   75.41   40.67   35.89
  147.83   43.34    5.33   28.05
  122.31   56.56   40.02   94.11
   38.22   37.03   74.32   16.28
   47.93   58.63   30.45   42.12
  272.82   63.64    4.50   45.37
  219.20   20.24   56.24   28.11
  197.34   48.44   52.00   66.85
  163.14   52.25   18.28   30.46
  217.34   87.60   25.03   67.77
  267.42   87.35   73.44   37.77
  134.00   86.72   86.98  196.76
  106.12   57.39   35.41   77.62
  155.03   60.08    6.70   30.88
  195.26   78.81   15.60   29.02
  271.32   72.32   26.65   41.82
  340.90   55.03   20.94   40.49
   19.02   42.38   15.55   28.90
   56.07   77.21   22.26   40.36
  286.59   69.46   22.02   56.53
  321.85   71.36   34.18   72.79
  212.40   52.31   88.42   37.42
  150.80   85.09   12.62   89.30
  165.07   79.84   72.86   36.59
  148.63   41.05   74.74   40.52
   44.72   87.40   45.65   54.16
  342.64   80.09   67.17   37.10
   93.77   38.07   10.46   65.18
  277.04   30.34   59.77   52.68
  113.73   21.53   75.85   39.99
  250.24   46.40   58.98   40.81
  136.13   52.79   61.22   38.81
  118.50   69.56   54.41   38.64
  109.44   69.41   50.21   40.22
   48.37   58.62   21.55   42.86
  111.10   53.15   66.21   75.34
  152.19   60.71   29.44   61.28
  230.26   70.19   14.35   48.84
  247.44   77.87   68.34   66.79
   96.80   77.97    6.86   39.43
  274.14   80.69   60.95   23.42
    7.32   61.11   82.66   22.53
  346.83   64.08   36.82   61.96
  108.77   69.34   42.80   48.03
  100.92   88.40   44.88   31.92
  168.17   50.28   13.18   29.78
  116.99   83.33    8.94   65.93
  105.84   38.85   10.30   37.76
  141.89   89.19   85.01  191.04
  254.14   45.12   81.97   32.83
  127.92   57.48   89.83   41.45
  343.13   37.77   72.70   38.28
  114.60   40.10   14.03   24.65
  228.97   57.42   25.38   40.07
  156.67   26.73   75.76   62.81
  283.41   68.97   31.33   64.39
   14.37   80.74   52.39   54.13
  331.12   71.49   89.03   54.83
  136.70   72.05    3.73  123.47
  341.05   80.19   54.29   33.24
  226.47   50.10   50.56   66.65
  185.18   27.00   79.01   21.65
  201.48   25.96   62.30   31.66
   61.01   52.84    4.47   31.54
  247.84   68.06   61.74   76.00
  185.57   74.09   61.02   62.96
   13.52   90.00   31.80   45.85
  105.98   28.64   54.88   40.70
   44.82   87.40   79.30  153.75
  100.46   66.66   80.80   37.63
  102.39   25.10   40.12   50.21
  293.79   63.56   89.44   50.62
  217.01   40.62   18.77   35.55
  114.63   29.87   15.36   41.85
  183.61   17.92   83.76   28.80
  277.87   45.59   88.77   94.45
  192.48   49.41   51.51   70.67
  122.38   88.63   81.05   99.45
  294.75   36.57   31.89   43.82
  314.59   19.28   79.85   84.66
  177.35   13.43   76.46   52.05
   21.53   65.68   40.72   44.43
    3.56   69.48    8.09   27.88
  238.11   47.68   31.79   58.11
  290.68   42.30   84.33   59.48
   62.03   87.71    9.23   91.70
  166.56   84.61   54.19   47.64
  321.80    8.92   20.25   52.88
  246.21   31.15   17.66   51.16
  288.56   36.30   39.45   45.78
  178.90   71.34   25.97   47.31
  198.34   73.26   36.26   55.95
   36.25   78.18   89.97  118.78
  169.08   55.67   62.59   35.16
  324.65   63.54   66.78   45.80
  299.48   23.73   54.70   26.07
  223.58   34.26   61.77   36.45
   30.07   36.36   77.92   18.52
  197.23   48.64   17.65   33.71
   77.39   66.66   21.97   42.89
  135.90   60.52   30.83   89.00
  346.44   87.39   76.91   42.03
  169.81   83.48   48.73   54.57
  316.30   47.67   85.51   48.79
  352.06   42.89   12.11   26.65
  166.69   65.74   71.21   38.49
  265.73   81.83   27.73   20.76
  236.74   60.63   79.87   50.39
  347.65   22.60   57.79  114.80
   26.53   15.07    1.49   55.81
  133.33   79.98   39.15   31.39
  278.38   65.47   74.87   39.53
  310.37   79.69   82.62   78.33
   13.69   71.36    5.64   35.38
   20.01   60.59   37.63   46.57
  324.05   37.19   67.67   39.19
  280.53   63.46    0.30   41.47
  280.32   61.06    6.63   42.77
  257.90   57.35   12.60   55.40
  290.64   48.86   52.48   78.18
  311.06   64.28   76.75   36.21
   17.29   45.64   55.88   55.92
  301.40   57.34   31.70   73.85
   42.34   58.37   73.75   56.80
  303.83   85.72   33.86   32.00
   79.12   26.67   33.58   39.39
  257.38   19.46   41.74   44.16
   63.98   59.63    7.14   46.38
  133.20   68.89   44.71   37.70
  349.33   50.63   32.87   60.01
   84.73   62.50   39.66   58.56
   48.95   64.20   62.02  102.14
  261.42   53.10   58.23   46.15
   71.25   71.14   71.97   64.17
  128.77   45.91   38.15   58.61
  101.24   59.03   27.99   65.93
  104.39   74.65   21.20   50.42
  243.80   53.90   17.63   41.24
  250.81   39.67   33.55   64.39
  244.15   46.91   34.42   80.38
   17.18   61.52   78.53   34.63
   87.17   22.13   10.56   31.16
   79.08   21.58    0.42   40.96
  205.18   77.97   87.74   55.92
  319.28   25.35   75.84   73.18
   35.61   49.74   88.96   36.63
  117.21   67.10    8.27   60.44
  214.13   65.11   85.32   52.39
  305.26   33.40    8.40   49.20
   84.82   54.52   30.89   71.88
  154.38   49.35   45.85   64.51
  351.82   45.01   73.63   26.98
   44.94   32.92   58.64   35.34
  189.75   58.46    9.25   23.55
  132.13   83.78   80.85  114.88
  190.81   27.41   60.97   45.15
  248.49   25.71   32.44   33.05
  147.84   44.55   13.36   23.24
  154.36   43.49   23.41   30.12
  268.69   81.99   17.80   28.08
   95.37   40.02   19.63   43.16
   90.67   74.02   33.06   35.87
  241.29   76.76    6.07   65.33
   30.98   64.97   81.26   51.45
  114.67   77.93    8.90   59.61
  163.59   48.93   86.94   29.31
  220.32   81.10   69.19   92.99
  258.47   83.82   13.90   33.67
   39.11   31.09   71.77   20.60
   26.22    6.49   65.75   35.89
  348.51   38.25   50.39   93.70
   72.65   30.54   26.42   41.00
  181.59   51.37   35.09   65.27
  283.89   53.35    2.66   53.18
   23.04   59.35   46.20   48.48
   94.15   82.39   12.84   33.88
  242.27   64.90   42.57   58.66
  182.79   88.37   51.28   90.10
  279.34   32.73   65.69   58.71
   47.50   48.29   36.30   52.01
  307.56   65.73   69.60   47.27
  264.68   67.01   56.72   53.75
  195.91   44.97   50.50   63.06
  303.64   70.15   42.05   48.52
   10.24   62.46   23.10   43.25
   41.47   71.83    0.90   95.60
  177.21   49.63    8.71   26.24
  344.52   71.21    2.57   34.71
  287.23   50.33   49.16   73.34
  256.76   77.62   62.23   41.98
   96.24   78.15   78.11   32.85
   32.23   62.72   26.37   41.73
  223.19   37.46   45.87   45.91
  219.63   45.44   49.15   56.75
   55.48   82.55   86.64  163.31
  241.95   38.18   58.79   39.80
  247.90   43.35   74.30   28.94
  320.69   49.08   77.37   33.37
  119.73   36.75   85.67   36.79
  277.63   14.94   60.68   52.25
  128.34   84.24   50.12   32.47
  135.84   59.13    8.20   59.55
    5.69   31.38   10.14   25.96
  282.49   74.21   49.09   31.20
  329.55   50.92   37.94   71.59
   80.67   62.59   60.52   62.34
   67.40   82.45   30.10   29.10
   35.74   71.02   85.40   88.65
  159.68   40.09   87.55   26.19
   55.51   74.51   28.23   37.67
  284.59   39.12   67.75   64.34
   42.96   87.69   51.12   53.40
  268.27   63.98   53.36   55.92
  289.80   68.98    9.06   45.59
  259.60   62.95   10.66   36.81
  316.64   81.12   65.40   46.34
  254.59   66.64    4.19   49.22
  143.61   77.26   77.75   69.43
  303.43   61.94   67.60   52.99
   76.84   55.50   48.46   79.69
  278.28   47.59   24.45   33.47
  112.71   31.10   50.52   40.12
  277.82   80.21   21.17   36.62
  263.15   29.34   58.77   43.41
  331.31   88.20   18.40   72.15
  342.74   61.46    8.38   25.89
  269.23   25.38   78.71   41.53
  304.00   61.86    4.63   53.95
   27.01   35.56   52.58   52.17
   44.47   45.44   10.62   40.70
  193.83   61.24    2.78   12.50
  351.59   82.21   13.10   47.20
  116.35   15.37   72.49   40.99
  271.33   78.94    6.66   37.84
   14.92   86.44   83.04   47.22
  233.39   68.18   76.36   96.30
  306.01   59.07   46.66   87.67
    1.67   70.50   86.54   26.61
  350.89   57.33   65.42   42.69
  277.11   70.30   72.03   36.75
  141.62   70.68   61.66   51.39
  171.80   36.03   77.34   24.88
  357.57   45.40   43.12   85.86
  194.56   31.80   36.02  108.68
  168.61   58.39   70.92   32.22
   32.09   34.68   81.08   19.72
  166.95   44.97    2.55   25.48
  201.61   43.11   31.92   69.27
  127.51   71.52   76.00   47.09
  144.77   11.38   20.77   43.64
  142.70   40.44   83.95   51.65
  155.45   10.62   79.23  130.61
   14.88   62.42   71.68   51.54
    5.54   75.72   44.26   82.21
    2.61   53.48   47.48   94.64
  304.03   48.83   71.48   39.97
  164.37   33.54   58.45   87.57
  237.42   42.64    1.40   41.02
  256.79   87.02    1.91   51.95
  149.99   61.51   64.90   43.49
   81.79   49.71   56.70   47.35
  331.35   70.93   46.57   32.97
   86.10   79.07   23.37   26.27
    3.58   58.03   51.67   72.13
  124.80   45.81   60.47   55.03
  315.36   58.64   42.44   87.39
  135.73   87.62   37.82   57.69
  226.34   73.22   72.79  120.56
  310.22   86.79   59.78   45.04
   58.74   29.69    5.93   37.09
  257.65   85.43   26.46   22.70
  324.78   67.30   87.96   73.97
  345.53   23.94   14.04   23.40
  334.39   79.05   83.71   53.99
  262.17   84.86   17.47   31.36
  245.62   20.27   75.89   85.10
  201.22   20.32   66.18   37.26
  248.05   30.33   46.91   41.02
  212.38   85.76   85.98  102.80
   71.08   74.74   84.93   66.05
  260.91   35.91   34.59   53.75
  193.32   30.10   68.08   28.93
  208.90   84.93   59.96   49.01
    3.81   80.57   70.04   30.25
  102.77   59.54   42.27   77.51
  201.46   61.82   80.84   33.49
   54.41   80.71   71.87  106.75
   35.37   84.02   89.07  135.89
  320.71   49.56   63.31   41.51
  337.56   69.26   26.13   53.45
  200.40   77.21   61.33   58.11
  260.10   52.66   50.65   57.35
  184.92   71.27   54.65   67.97
  342.37   19.40   19.60   35.33
  327.24   86.33   11.37  129.09
  121.50   33.06   46.08   38.17
  220.61   42.66   86.63   41.45
  300.86   17.72   57.73   33.59
  336.45   58.93   25.20   60.49
  234.69   70.65   85.65   96.26
  274.35   44.93   21.62   41.55
  197.27   50.91   77.84   32.84
  353.42   54.01   24.63   42.45
  301.27   22.76    4.36   72.99
   83.07   72.33   48.02   40.20
  162.92   83.06   70.70   45.02
  288.23   83.96   22.62   42.71
  218.90   53.85   10.17   29.16
  324.89   67.88   77.91   43.62
  244.10   67.58   25.79   35.54
  175.86   60.37   37.34   68.17
  262.58   77.28   15.71   18.84
  213.37   64.86   56.11   69.72
   46.18   34.03   36.82   52.92
    6.61   30.28   80.32   13.28
  259.49   27.13   11.64   43.55
   99.72   12.77   58.42   48.46
  177.82   23.20    8.10   32.78
  163.08   82.25   79.34   41.97
  359.50   48.58   85.19   18.05
  113.73   63.56   34.41   70.41
  287.28   88.48   89.04   60.37
  302.87   32.98   15.46   39.79
   52.63   89.48   53.42   42.55
   83.38   77.40   19.79   26.40
  282.57   89.02   69.94   31.89
  261.25   83.07    8.53   30.07
  258.90   39.99   23.45   69.59
  304.34   31.85   33.32   36.91
  159.97   46.53    7.08   19.61
   40.80   72.21   81.34  110.08
  307.45   77.52   43.08   34.86
  205.24   48.87   63.51   49.30
   91.88   53.92   81.42   67.82
  338.63   61.60   41.46   62.58
   63.34   82.30   53.99   37.40
  339.00   58.65    9.40   29.28
  276.25    8.56    8.46   61.17
  133.83   38.98   43.07   47.06
  287.50   47.29   21.53   31.71
  191.10   20.68   62.32   47.33
  214.21   70.92   69.91   86.62
  197.34   83.44   75.47   52.52
  285.58   26.29   25.29   41.56
  160.44   14.69   62.90  135.17
   60.33   26.10   17.33   36.11
  219.05   49.36   24.03   37.45
  190.94   87.22   55.61   55.75
  318.22   55.94   17.11   53.64
  285.15   38.28   75.18   75.51
  184.49   33.11   46.73  111.19
  256.82   17.18   77.37   68.08
   11.88   70.60   25.90   48.38
   65.96   35.94   21.39   51.28
   72.66   18.17   22.45   36.90
  112.46    8.66   86.30   50.33
  220.02   38.57   66.02   28.92
  242.81   74.89   71.19   93.00
   31.16   80.46   58.93   43.09
   20.99   75.98   37.78   40.64
  290.50   37.62   14.24   35.04
   67.05   37.46   36.14   63.53
  152.27   69.67   59.31   51.71
   94.23   19.03   78.42   36.71
  105.86   84.64   12.27   47.59
  147.16   58.00   56.94   39.51
  122.43   67.13   57.48   47.01
  310.37   29.42    4.27   50.54
  143.77   86.40   49.79   39.86
   25.33   77.12    7.13   55.21
  126.10   18.12   66.70   47.49
  246.58   58.63    4.79   32.68
  320.81   71.62   17.54  112.40
  150.74   36.85    0.66   25.07
   46.03   55.43   27.12   38.66
  326.51   81.09   50.76   29.95
  264.95   57.38   46.30   76.20
  329.07   75.73   85.76   78.55
  241.74   45.07   17.73   45.04
  232.61   79.53   41.82   26.51
   30.64   45.87    5.12   36.93
   69.73   89.13   56.65   13.27
  221.98   60.71   17.97   37.07
  223.77   62.49   20.92   42.10
  280.62   84.23   34.65   20.22
  192.75   28.42   89.43   18.35
  240.90   53.45   86.98   37.26
  246.15   83.75   81.47   73.53
  329.56   44.09   54.27   65.31
  114.77   46.78   37.90   51.13
  187.94   62.14   43.39   92.88
  173.28   30.43   28.53   53.60
  345.67   18.79   43.67   72.66
   64.40   37.15   74.22   30.52
  193.31   16.19    8.10   46.75
  166.70   36.64    0.97    9.21
  254.61   65.91   53.12   64.21
   55.45   35.14   72.71   25.07
  300.67   78.65   22.48   69.46
  316.45   73.56   16.18  121.08
  224.59   79.23   21.47   49.96
  272.89   28.69   53.04   50.74
  252.35   69.75   55.26   60.23
  118.44   41.84   59.77   67.63
  205.53   85.63   83.50   71.38
  341.79   65.01   29.55   57.09
  250.63   68.11   38.34   43.48
  199.58   44.80   58.02   54.70
  275.33   89.09   28.53   22.66
   24.99   75.20   49.04   38.32
  251.24   84.68   28.47   25.38
  168.95   73.98   41.28   50.03
  178.58   89.75   64.74   46.75
   11.12   86.65   35.08   64.17
  343.50   34.25    6.83   20.04
   30.55   67.51   35.81   35.94
  304.27   20.94   87.49   74.26
  223.53   58.23   49.39   82.84
   33.57   85.60   47.96   37.14
   33.07   47.10   47.79   65.05
   25.18   58.54   35.93   50.64
  132.38   36.81    6.33   45.05
  217.97   86.12   77.89  125.42
   97.28   46.00   49.82   48.03
  327.86   79.80   19.33   88.90
   41.46   83.44   41.75   43.76
   95.00   74.83   41.54   33.26
   65.72   32.56   77.59   40.48
  339.19   76.71   48.13   36.20
  334.35   58.84   80.89   25.45
    1.69   70.49   40.29   76.71
  243.28   64.26   13.54   33.56
  244.38   68.37   70.38   88.35
   92.95   62.78   73.80   48.67
   57.36   85.76   38.73   43.17
   92.92   57.30   46.18   85.85
   41.09   68.36   29.28   39.46
  337.28   65.56   40.55   55.01
  228.27   86.07   67.65   99.11
  190.79   67.64   75.30   35.66
  175.85   61.63    0.73    9.96
  297.99   41.28   24.25   35.91
  161.76   86.14   22.94   41.77
  299.09   43.19   79.04   50.94
  153.52   87.64    0.80   97.31
  204.96   81.11   54.72   38.24
  173.78   81.46   36.05   50.00
   20.84   81.28   45.75   41.47
   22.28   28.07   59.94   41.65
  214.47   71.42   20.24   47.25
  306.69   72.82    0.65   74.99
   45.31   69.98    9.65   63.63
  294.18   74.60   22.55   65.68
  258.37   53.85   21.61   65.99
  211.70   53.01   55.60   66.17
  142.16   48.14   37.26   58.29
  112.57   78.00   24.03   50.76
   96.88   49.53   25.85   46.40
  201.96   52.87   25.12   38.67
  334.30   30.67   29.24   37.70
  224.28   68.58   22.80   40.32
  254.07   58.69   20.88   54.19
  243.68   42.18   43.25   52.57
  125.24   78.23   22.20   77.92
  356.19   39.10   70.10   35.88
   58.90   76.30    0.61   97.29
  171.49   76.68    0.56   43.20
  330.39   63.93   74.75   31.15
   32.19   66.65   85.77   63.49
  332.69   78.72   74.99   51.32
  337.46   66.22   88.15   40.20
   61.79   38.84   87.53   36.64
  130.79   28.62   20.72   26.13
  118.69   79.94   29.15   37.44
   75.20    7.49   70.00  129.92
  213.33   65.77   70.54   73.85
  247.11   84.54   49.47   26.52
  121.95   51.82   67.00   50.69
   85.11   75.58   38.09   25.93
  295.63   66.71   70.12   50.23
  192.27   64.88    6.96   20.25
   88.63   55.76   71.38   53.27
   78.14   63.25   10.00   44.01
  100.35   71.36   84.62   44.63
   96.07   22.49   39.77   50.61
  210.22   19.05   45.85   44.55
   31.92   53.59   18.85   23.85
  342.94   66.83   79.62   20.43
  166.54   61.19   11.14   27.89
   78.60   49.77   68.49   31.55
    6.45   32.21   47.48  109.35
  300.76    5.12   30.17  111.12
  181.72   30.94   82.54   14.40
   34.79   63.29   46.56   48.39
  221.70   53.51   73.02   33.35
  199.88   63.14   24.34   38.27
    4.15   49.74   50.68   83.00
  219.81   65.29   57.19   76.54
   35.44   51.21   36.99   54.15
  138.53   68.19   37.55   57.47
   25.75   88.33   19.17   60.53
  349.71   69.78   27.36   48.29
  280.20   38.52   55.35   49.88
   35.48   61.25   14.02   30.18
  255.50   23.87   51.58   44.26
   64.64   43.10   38.97   78.17
  115.87   48.07   78.35   56.15
  186.98   34.09   57.15   67.23
  172.37   52.00   44.38   78.55
   83.09   82.98   44.10   20.95
   27.59   87.12   88.46   95.44
   52.04   39.78   49.56   45.85
  356.06   55.48   80.32   16.65
  220.56   31.33   78.99   30.02
   18.24   77.38   15.22   37.63
  318.82   23.03   20.11   33.85
  180.52   79.56   61.14   47.22
  159.10   66.54   33.07   58.95
  207.54   43.83   72.66   28.02
  313.56   70.74   35.96   79.45
   45.07   72.90   70.15  110.56
   67.12   49.65   19.56   54.00
  340.24   59.70   19.96   53.49
  209.40   35.44   50.11   55.22
   30.22   28.29   39.69   64.78
  169.10   64.98   21.83   51.46
   83.75   73.19   32.25   31.19
   94.80   83.24   75.67   36.39
  251.62   84.10   77.21   64.94
  145.74   20.04   55.44   51.53
   37.34   84.49   55.54   46.63
  275.34   89.52   40.85   26.98
  156.17   41.84   59.66   54.05
  293.91   73.09   89.06   51.08
  323.35   51.52   30.92   55.40
  188.80   60.22   62.67   39.02
  207.16   36.06   25.99   62.39
  201.23   75.76   74.08   53.59
   66.67   32.44   67.14   36.44
  341.81   62.15   33.40   57.32
   47.63   53.53    3.67   46.94
  195.12   23.03   81.14   29.22
  355.88   82.92   75.93   34.61
  350.66   65.34   76.55   19.38
  213.33   63.49   44.59   61.74
  338.99   67.76   51.49   43.69
  278.66   29.15   44.78   52.05
   14.66   56.77   18.24   31.02
  280.82   14.66   79.66   46.71
  294.11   80.50   34.75   31.33
  169.42   66.88   78.83   16.70
   23.49   76.53   18.23   42.38
   86.57   29.72   55.49   40.61
  238.46   75.60   89.70   87.75
  260.04   41.91   32.23   63.68
  331.78   71.36   51.19   34.62
  124.72   21.29   31.77   33.41
  334.09   77.64   34.40   33.78
   71.88   38.46   78.61   28.02
   63.35   51.86   86.47   40.30
  178.14   72.52   47.46   72.70
   72.35   34.37   55.00   45.66
  268.44   46.79   10.42   90.96
   13.02   52.94   72.49   32.18
  302.50   61.80   35.19   92.33
  116.62   61.15   14.64   49.37
  338.26   80.36   73.42   49.81
  330.48   48.15    7.93   28.41
    5.55   54.72   86.70    8.11
  223.57   70.03    2.22   89.07
  332.85   58.59   63.52   49.60
    7.36   63.78   54.89   53.83
  327.60   75.16   82.07   65.59
   48.62   84.76   84.21  193.48
  326.31   89.46   47.84   39.18
   18.34   69.29   88.55   35.60
  204.36   46.93    4.23   26.19
  227.36   89.57   46.00   58.16
  171.72   55.52   48.60   77.97
  284.56   78.48   24.75   39.06
  141.65   74.83   27.84   72.63
  355.54   75.94    9.81   39.01
  121.76   83.08   89.94  107.57
  155.71   25.08   60.43   77.14
  245.62   55.00   71.88   41.16
   16.98   82.36   34.66   50.44
  339.51   74.50   18.80   53.36
  144.33   80.02   68.02   54.77
  203.98   56.66    0.09   19.75
  221.78   30.82    3.50   49.81
  170.72   46.61   46.35   74.61
  310.50   46.55   82.77   36.21
  253.84   89.56   80.00   55.16
  263.40   64.07   72.59   52.48
  192.55   88.12   40.47   66.67
  121.02   87.98   75.86   70.94
  224.89   48.18   57.08   54.69
   89.45   43.13   87.92   94.18
    5.35   46.38   46.58   91.75
  315.82   10.50    3.53  160.55
  290.76   64.79   30.16   69.70
  207.69   43.75   85.01   33.71
  200.99    9.71   54.80   54.28
  204.25   31.80   23.26   69.60
  123.66   83.74    8.77   92.22
   51.58   89.56    0.63  210.89
   83.90   42.01   53.72   43.58
   20.98    7.75   81.46   41.64
  101.04   82.39   64.91   20.52
  189.47   73.47   54.53   61.24
   99.25   47.61    1.53   87.14
  271.91   45.85   63.16   35.89
  268.79    9.32   61.11   97.87
  279.67   19.83   26.22   65.40
  353.45   34.76   49.27  104.24
  282.72   41.27   18.38   34.99
   18.73   17.47   59.37   47.49
   93.33   74.75   12.57   30.48
  325.86   72.57   86.88   81.68
  307.78   37.68   88.65   48.79
  300.77   88.93   19.40   65.98
  318.44   54.80   63.23   48.46
  264.69   67.88    1.27   37.19
  104.61   70.26    2.96   44.48
  268.47   60.55   76.23   50.61
   88.99   43.25   21.16   58.97
  240.77   56.50   77.19   39.48
   23.07   13.63   45.83   57.47
  219.42   81.53   73.98  109.11
   95.14   37.29   49.49   35.86
  205.00   46.59   79.53   24.56
  233.08   43.09   13.97   32.84
   61.07   33.25   49.41   38.16
   95.73   37.32   54.26   37.87
  201.28   86.08   20.92   45.26
  234.49    9.58   16.52   74.36
   15.62   78.53   11.48   35.23
   70.20   88.97   46.26   26.89
  133.15   59.11   44.45   73.73
   25.90   66.19    7.67   32.67
   67.63   85.60    4.23   72.12
  220.13   49.78   18.39   34.48
  208.46   57.87   45.79   76.73
   89.38   66.89   62.06   53.84
  160.97   81.57   30.40   45.94
  287.73   63.66   16.45   50.91
  235.41   71.47   30.78   41.22
  206.56    6.74   56.60   52.15
  262.82    8.04   33.20   72.53
   88.00   77.25   60.11   35.61
   97.54   54.24   82.75   72.43
  198.10   75.94   29.78   54.20
   96.75   64.92   40.28   63.90
  355.33   85.89    8.25   52.74
   97.11   36.16   89.36   66.32
   44.90   59.70   67.89   88.64
  152.99   60.62   53.96   45.17
  233.58   43.29   47.44   49.48
   89.80   87.63   68.13   22.61
  113.58   46.44   62.53   75.21
  315.29   59.57   47.53   66.75
   96.59   72.28   35.94   44.70
  240.06   59.53   25.89   42.68
  139.79   77.96   37.11   34.51
  220.72   30.04   26.82   51.91
   37.47   56.88   14.20   19.92
   17.83   83.95    0.56   61.21
  154.39   44.51   88.61   32.06
  184.09   36.32   64.93   39.17
  243.61   74.10   48.00   32.02
  111.27   73.11   33.30   56.36
  143.40   51.37   55.31   46.22
  240.40   69.67   86.86   77.38
  339.56   72.22   69.31   42.21
  250.32   75.64   60.93   57.07
  353.00   40.46   15.03   29.41
  283.32   38.72    6.76   55.49
  145.08    1.37   26.04   52.32
  248.89   61.17   28.83   56.64
  194.22   78.57   29.44   50.18
   47.03   76.84   26.53   38.10
  286.50   42.98   75.40   89.54
   22.77   58.11   55.53   55.43
  290.51   25.53   85.67   47.46
  318.24   85.63   65.23   72.10
  333.70   71.72   80.72   40.42
  296.58   28.72   12.98   44.07
  287.63   39.33   49.80   46.33
  317.36   19.44   66.47   59.14
  215.53   52.35   22.15   40.58
  279.54   30.94   25.44   39.82
  304.81   12.04   43.39   34.54
  302.68   20.99   11.38   83.46
   75.65   46.58    1.21   50.54
   10.27   27.96    3.48   18.46
   26.01   61.10   25.35   44.34
  269.69   70.66   47.58   44.17
   39.68   42.66   64.80   34.12
  162.39   21.13    0.58   31.47
  209.71   28.78   81.78   29.09
  199.18   79.41   80.11   45.05
   51.03   52.28   27.41   41.86
  296.93   87.81   34.38   19.66
  143.85   22.45   10.54   41.45
  133.57   73.18   31.88   71.86
  359.42   13.58   22.71   55.00
  287.23   10.26   31.93  142.25
  146.80   56.49   10.88   39.88
